Yearly Consumption (MW)
734.4402
644.0238
524.313
366.88559999999995
265.2192
188.1306
165.18779999999998
221.06220000000002
365.8788
569.0472
736.5743999999999
993.3726000000001
1017.7158000000001
956.8428
919.0272
1036.086
1101.3185999999998
1201.0133999999998
1296.939
1335.4758
1231.4958
1003.4346
777.216
661.4232000000001
640.9488
590.8584000000001
519.708
400.6344
301.953
209.5746
155.97
142.9446
204.66060000000002
344.5398
573.5111999999999
701.2361999999999
740.5368000000001
631.2078
627.474
757.245
903.8892
1004.8530000000001
1188.6864
1308.6546
1215.7656000000002
1070.457
932.8134
750.2154
575.565
405.50759999999997
302.76840000000004
216.23520000000002
173.3112
148.26
258.2058
733.0788
1284.5328
1436.4732
1241.3154000000002
996.1110000000001
898.6206
940.9062000000001
1038.3876
970.6416
883.08
985.4753999999999
1293.63
1621.8372
1729.3572000000001
1471.6524
1141.2798
913.8581999999999
729.6576
536.1978
380.7888
272.1834
197.4438
168.87959999999998
269.34959999999995
742.4892
1299.3612
1478.4714000000001
1284.3066000000001
1029.0822
923.6406
967.5491999999999
1064.1996000000001
994.4226
907.9853999999999
999.7092
1298.619
1619.7294
1721.892
1461.333
1136.544
912.6366
729.1271999999999
535.7135999999999
380.38980000000004
274.0632
197.48340000000002
168.11579999999998
267.09659999999997
735.3468
1283.8313999999998
1451.5194
1273.971
1034.3538
932.5422000000001
972.4602
1066.6193999999998
990.8123999999999
902.2697999999999
997.9008
1302.4728
1617.315
1719.294
1453.2978
1120.41
901.2354
723.0408
532.4088
377.829
271.2114
196.971
167.502
269.18519999999995
739.2456
1281.7127999999998
1446.2964
1267.6494
1033.4868000000001
934.7891999999999
971.307
1058.151
986.5913999999999
900.8112
997.0626
1288.626
1595.1882000000003
1689.2574000000002
1425.498
1101.8927999999999
890.4971999999999
716.43
528.672
377.4984
271.33320000000003
196.53240000000002
162.849
245.73539999999997
648.279
1111.0242
1252.7117999999998
1133.2913999999998
966.0335999999999
935.6777999999999
989.0904000000002
1050.8928
973.6637999999999
921.1374
1110.6348
1500.9264
1764.1991999999998
1762.8678
1431.0503999999999
1093.2636
894.615
734.4402
644.0238
524.313
366.88559999999995
265.2192
188.1306
165.18779999999998
221.06220000000002
365.8788
569.0472
736.5743999999999
993.3726000000001
1017.7158000000001
956.8428
919.0272
1036.086
1101.3185999999998
1201.0133999999998
1296.939
1335.4758
1231.4958
1003.4346
777.216
661.4232000000001
640.9488
590.8584000000001
519.708
400.6344
301.953
209.5746
155.97
142.9446
204.66060000000002
344.5398
573.5111999999999
701.2361999999999
740.5368000000001
631.2078
627.474
757.245
903.8892
1004.8530000000001
1188.6864
1308.6546
1215.7656000000002
1070.457
932.8134
750.2154
575.565
405.50759999999997
302.76840000000004
216.23520000000002
173.3112
148.26
258.2058
733.0788
1284.5328
1436.4732
1241.3154000000002
996.1110000000001
898.6206
940.9062000000001
1038.3876
970.6416
883.08
985.4753999999999
1293.63
1621.8372
1729.3572000000001
1471.6524
1141.2798
913.8581999999999
729.6576
536.1978
380.7888
272.1834
197.4438
168.87959999999998
269.34959999999995
742.4892
1299.3612
1478.4714000000001
1284.3066000000001
1029.0822
923.6406
967.5491999999999
1064.1996000000001
994.4226
907.9853999999999
999.7092
1298.619
1619.7294
1721.892
1461.333
1136.544
912.6366
729.1271999999999
535.7135999999999
380.38980000000004
274.0632
197.48340000000002
168.11579999999998
267.09659999999997
735.3468
1283.8313999999998
1451.5194
1273.971
1034.3538
932.5422000000001
972.4602
1066.6193999999998
990.8123999999999
902.2697999999999
997.9008
1302.4728
1617.315
1719.294
1453.2978
1120.41
901.2354
723.0408
532.4088
377.829
271.2114
196.971
167.502
269.18519999999995
739.2456
1281.7127999999998
1446.2964
1267.6494
1033.4868000000001
934.7891999999999
971.307
1058.151
986.5913999999999
900.8112
997.0626
1288.626
1595.1882000000003
1689.2574000000002
1425.498
1101.8927999999999
890.4971999999999
716.43
528.672
377.4984
271.33320000000003
196.53240000000002
162.849
245.73539999999997
648.279
1111.0242
1252.7117999999998
1133.2913999999998
966.0335999999999
935.6777999999999
989.0904000000002
1050.8928
973.6637999999999
921.1374
1110.6348
1500.9264
1764.1991999999998
1762.8678
1431.0503999999999
1093.2636
894.615
734.4402
644.0238
524.313
366.88559999999995
265.2192
188.1306
165.18779999999998
221.06220000000002
365.8788
569.0472
736.5743999999999
993.3726000000001
1017.7158000000001
956.8428
919.0272
1036.086
1101.3185999999998
1201.0133999999998
1296.939
1335.4758
1231.4958
1003.4346
777.216
661.4232000000001
640.9488
590.8584000000001
519.708
400.6344
301.953
209.5746
155.97
142.9446
204.66060000000002
344.5398
573.5111999999999
701.2361999999999
740.5368000000001
631.2078
627.474
757.245
903.8892
1004.8530000000001
1188.6864
1308.6546
1215.7656000000002
1070.457
932.8134
750.2154
575.565
405.50759999999997
302.76840000000004
216.23520000000002
173.3112
148.26
258.2058
733.0788
1284.5328
1436.4732
1241.3154000000002
996.1110000000001
898.6206
940.9062000000001
1038.3876
970.6416
883.08
985.4753999999999
1293.63
1621.8372
1729.3572000000001
1471.6524
1141.2798
913.8581999999999
729.6576
536.1978
380.7888
272.1834
197.4438
168.87959999999998
269.34959999999995
742.4892
1299.3612
1478.4714000000001
1284.3066000000001
1029.0822
923.6406
967.5491999999999
1064.1996000000001
994.4226
907.9853999999999
999.7092
1298.619
1619.7294
1721.892
1461.333
1136.544
912.6366
729.1271999999999
535.7135999999999
380.38980000000004
274.0632
197.48340000000002
168.11579999999998
267.09659999999997
735.3468
1283.8313999999998
1451.5194
1273.971
1034.3538
932.5422000000001
972.4602
1066.6193999999998
990.8123999999999
902.2697999999999
997.9008
1302.4728
1617.315
1719.294
1453.2978
1120.41
901.2354
723.0408
532.4088
377.829
271.2114
196.971
167.502
269.18519999999995
739.2456
1281.7127999999998
1446.2964
1267.6494
1033.4868000000001
934.7891999999999
971.307
1058.151
986.5913999999999
900.8112
997.0626
1288.626
1595.1882000000003
1689.2574000000002
1425.498
1101.8927999999999
890.4971999999999
716.43
528.672
377.4984
271.33320000000003
196.53240000000002
162.849
245.73539999999997
648.279
1111.0242
1252.7117999999998
1133.2913999999998
966.0335999999999
935.6777999999999
989.0904000000002
1050.8928
973.6637999999999
921.1374
1110.6348
1500.9264
1764.1991999999998
1762.8678
1431.0503999999999
1093.2636
894.615
734.4402
644.0238
524.313
366.88559999999995
265.2192
188.1306
165.18779999999998
221.06220000000002
365.8788
569.0472
736.5743999999999
993.3726000000001
1017.7158000000001
956.8428
919.0272
1036.086
1101.3185999999998
1201.0133999999998
1296.939
1335.4758
1231.4958
1003.4346
777.216
661.4232000000001
640.9488
590.8584000000001
519.708
400.6344
301.953
209.5746
155.97
142.9446
204.66060000000002
344.5398
573.5111999999999
701.2361999999999
740.5368000000001
631.2078
627.474
757.245
903.8892
1004.8530000000001
1188.6864
1308.6546
1215.7656000000002
1070.457
932.8134
750.2154
575.565
405.50759999999997
302.76840000000004
216.23520000000002
173.3112
148.26
258.2058
733.0788
1284.5328
1436.4732
1241.3154000000002
996.1110000000001
898.6206
940.9062000000001
1038.3876
970.6416
883.08
985.4753999999999
1293.63
1621.8372
1729.3572000000001
1471.6524
1141.2798
913.8581999999999
729.6576
536.1978
380.7888
272.1834
197.4438
168.87959999999998
269.34959999999995
742.4892
1299.3612
1478.4714000000001
1284.3066000000001
1029.0822
923.6406
967.5491999999999
1064.1996000000001
994.4226
907.9853999999999
999.7092
1298.619
1619.7294
1721.892
1461.333
1136.544
912.6366
729.1271999999999
535.7135999999999
380.38980000000004
274.0632
197.48340000000002
168.11579999999998
267.09659999999997
735.3468
1283.8313999999998
1451.5194
1273.971
1034.3538
932.5422000000001
972.4602
1066.6193999999998
990.8123999999999
902.2697999999999
997.9008
1302.4728
1617.315
1719.294
1453.2978
1120.41
901.2354
723.0408
532.4088
377.829
271.2114
196.971
167.502
269.18519999999995
739.2456
1281.7127999999998
1446.2964
1267.6494
1033.4868000000001
934.7891999999999
971.307
1058.151
986.5913999999999
900.8112
997.0626
1288.626
1595.1882000000003
1689.2574000000002
1425.498
1101.8927999999999
890.4971999999999
716.43
528.672
377.4984
271.33320000000003
196.53240000000002
162.849
245.73539999999997
648.279
1111.0242
1252.7117999999998
1133.2913999999998
966.0335999999999
935.6777999999999
989.0904000000002
1050.8928
973.6637999999999
921.1374
1110.6348
1500.9264
1764.1991999999998
1762.8678
1431.0503999999999
1093.2636
894.615
734.4402
644.0238
524.313
366.88559999999995
265.2192
188.1306
165.18779999999998
221.06220000000002
365.8788
569.0472
736.5743999999999
993.3726000000001
1017.7158000000001
956.8428
919.0272
1036.086
1101.3185999999998
1201.0133999999998
1296.939
1335.4758
1231.4958
1003.4346
777.216
661.4232000000001
640.9488
590.8584000000001
519.708
400.6344
301.953
209.5746
155.97
142.9446
204.66060000000002
344.5398
573.5111999999999
701.2361999999999
740.5368000000001
631.2078
627.474
757.245
903.8892
1004.8530000000001
1188.6864
1308.6546
1215.7656000000002
1070.457
932.8134
750.2154
575.565
405.50759999999997
302.76840000000004
216.23520000000002
173.3112
148.26
258.2058
733.0788
1284.5328
1436.4732
1241.3154000000002
996.1110000000001
898.6206
940.9062000000001
1038.3876
970.6416
883.08
985.4753999999999
1293.63
1621.8372
1729.3572000000001
1471.6524
1141.2798
913.8581999999999
729.6576
536.1978
380.7888
272.1834
197.4438
168.87959999999998
269.34959999999995
742.4892
1299.3612
1478.4714000000001
1284.3066000000001
1029.0822
923.6406
967.5491999999999
1064.1996000000001
994.4226
907.9853999999999
999.7092
1298.619
1619.7294
1721.892
1461.333
1136.544
912.6366
729.1271999999999
535.7135999999999
380.38980000000004
274.0632
197.48340000000002
168.11579999999998
267.09659999999997
735.3468
1283.8313999999998
1451.5194
1273.971
1034.3538
932.5422000000001
972.4602
1066.6193999999998
990.8123999999999
902.2697999999999
997.9008
1302.4728
1617.315
1719.294
1453.2978
1120.41
901.2354
723.0408
532.4088
377.829
271.2114
196.971
167.502
269.18519999999995
739.2456
1281.7127999999998
1446.2964
1267.6494
1033.4868000000001
934.7891999999999
971.307
1058.151
986.5913999999999
900.8112
997.0626
1288.626
1595.1882000000003
1689.2574000000002
1425.498
1101.8927999999999
890.4971999999999
716.43
528.672
377.4984
271.33320000000003
196.53240000000002
162.849
245.73539999999997
648.279
1111.0242
1252.7117999999998
1133.2913999999998
966.0335999999999
935.6777999999999
989.0904000000002
1050.8928
973.6637999999999
921.1374
1110.6348
1500.9264
1764.1991999999998
1762.8678
1431.0503999999999
1093.2636
894.615
734.4402
644.0238
524.313
366.88559999999995
265.2192
188.1306
165.18779999999998
221.06220000000002
365.8788
569.0472
736.5743999999999
993.3726000000001
1017.7158000000001
956.8428
919.0272
1036.086
1101.3185999999998
1201.0133999999998
1296.939
1335.4758
1231.4958
1003.4346
777.216
661.4232000000001
640.9488
590.8584000000001
519.708
400.6344
301.953
209.5746
155.97
142.9446
204.66060000000002
344.5398
573.5111999999999
701.2361999999999
740.5368000000001
631.2078
627.474
757.245
903.8892
1004.8530000000001
1188.6864
1308.6546
1215.7656000000002
1070.457
932.8134
750.2154
575.565
405.50759999999997
302.76840000000004
216.23520000000002
173.3112
148.26
258.2058
733.0788
1284.5328
1436.4732
1241.3154000000002
996.1110000000001
898.6206
940.9062000000001
1038.3876
970.6416
883.08
985.4753999999999
1293.63
1621.8372
1729.3572000000001
1471.6524
1141.2798
913.8581999999999
729.6576
536.1978
380.7888
272.1834
197.4438
168.87959999999998
269.34959999999995
742.4892
1299.3612
1478.4714000000001
1284.3066000000001
1029.0822
923.6406
967.5491999999999
1064.1996000000001
994.4226
907.9853999999999
999.7092
1298.619
1619.7294
1721.892
1461.333
1136.544
912.6366
729.1271999999999
535.7135999999999
380.38980000000004
274.0632
197.48340000000002
168.11579999999998
267.09659999999997
735.3468
1283.8313999999998
1451.5194
1273.971
1034.3538
932.5422000000001
972.4602
1066.6193999999998
990.8123999999999
902.2697999999999
997.9008
1302.4728
1617.315
1719.294
1453.2978
1120.41
901.2354
723.0408
532.4088
377.829
271.2114
196.971
167.502
269.18519999999995
739.2456
1281.7127999999998
1446.2964
1267.6494
1033.4868000000001
934.7891999999999
971.307
1058.151
986.5913999999999
900.8112
997.0626
1288.626
1595.1882000000003
1689.2574000000002
1425.498
1101.8927999999999
890.4971999999999
716.43
528.672
377.4984
271.33320000000003
196.53240000000002
162.849
245.73539999999997
648.279
1111.0242
1252.7117999999998
1133.2913999999998
966.0335999999999
935.6777999999999
989.0904000000002
1050.8928
973.6637999999999
921.1374
1110.6348
1500.9264
1764.1991999999998
1762.8678
1431.0503999999999
1093.2636
894.615
734.4402
644.0238
524.313
366.88559999999995
265.2192
188.1306
165.18779999999998
221.06220000000002
365.8788
569.0472
736.5743999999999
993.3726000000001
1017.7158000000001
956.8428
919.0272
1036.086
1101.3185999999998
1201.0133999999998
1296.939
1335.4758
1231.4958
1003.4346
777.216
661.4232000000001
640.9488
590.8584000000001
519.708
400.6344
301.953
209.5746
155.97
142.9446
204.66060000000002
344.5398
573.5111999999999
701.2361999999999
740.5368000000001
631.2078
627.474
757.245
903.8892
1004.8530000000001
1188.6864
1308.6546
1215.7656000000002
1070.457
932.8134
750.2154
575.565
405.50759999999997
302.76840000000004
216.23520000000002
173.3112
148.26
258.2058
733.0788
1284.5328
1436.4732
1241.3154000000002
996.1110000000001
898.6206
940.9062000000001
1038.3876
970.6416
883.08
985.4753999999999
1293.63
1621.8372
1729.3572000000001
1471.6524
1141.2798
913.8581999999999
729.6576
536.1978
380.7888
272.1834
197.4438
168.87959999999998
269.34959999999995
742.4892
1299.3612
1478.4714000000001
1284.3066000000001
1029.0822
923.6406
967.5491999999999
1064.1996000000001
994.4226
907.9853999999999
999.7092
1298.619
1619.7294
1721.892
1461.333
1136.544
912.6366
729.1271999999999
535.7135999999999
380.38980000000004
274.0632
197.48340000000002
168.11579999999998
267.09659999999997
735.3468
1283.8313999999998
1451.5194
1273.971
1034.3538
932.5422000000001
972.4602
1066.6193999999998
990.8123999999999
902.2697999999999
997.9008
1302.4728
1617.315
1719.294
1453.2978
1120.41
901.2354
723.0408
532.4088
377.829
271.2114
196.971
167.502
269.18519999999995
739.2456
1281.7127999999998
1446.2964
1267.6494
1033.4868000000001
934.7891999999999
971.307
1058.151
986.5913999999999
900.8112
997.0626
1288.626
1595.1882000000003
1689.2574000000002
1425.498
1101.8927999999999
890.4971999999999
716.43
528.672
377.4984
271.33320000000003
196.53240000000002
162.849
245.73539999999997
648.279
1111.0242
1252.7117999999998
1133.2913999999998
966.0335999999999
935.6777999999999
989.0904000000002
1050.8928
973.6637999999999
921.1374
1110.6348
1500.9264
1764.1991999999998
1762.8678
1431.0503999999999
1093.2636
894.615
734.4402
644.0238
524.313
366.88559999999995
265.2192
188.1306
165.18779999999998
221.06220000000002
365.8788
569.0472
736.5743999999999
993.3726000000001
1017.7158000000001
956.8428
919.0272
1036.086
1101.3185999999998
1201.0133999999998
1296.939
1335.4758
1231.4958
1003.4346
777.216
661.4232000000001
640.9488
590.8584000000001
519.708
400.6344
301.953
209.5746
155.97
142.9446
204.66060000000002
344.5398
573.5111999999999
701.2361999999999
740.5368000000001
631.2078
627.474
757.245
903.8892
1004.8530000000001
1188.6864
1308.6546
1215.7656000000002
1070.457
932.8134
750.2154
575.565
405.50759999999997
302.76840000000004
216.23520000000002
173.3112
148.26
258.2058
733.0788
1284.5328
1436.4732
1241.3154000000002
996.1110000000001
898.6206
940.9062000000001
1038.3876
970.6416
883.08
985.4753999999999
1293.63
1621.8372
1729.3572000000001
1471.6524
1141.2798
913.8581999999999
729.6576
536.1978
380.7888
272.1834
197.4438
168.87959999999998
269.34959999999995
742.4892
1299.3612
1478.4714000000001
1284.3066000000001
1029.0822
923.6406
967.5491999999999
1064.1996000000001
994.4226
907.9853999999999
999.7092
1298.619
1619.7294
1721.892
1461.333
1136.544
912.6366
729.1271999999999
535.7135999999999
380.38980000000004
274.0632
197.48340000000002
168.11579999999998
267.09659999999997
735.3468
1283.8313999999998
1451.5194
1273.971
1034.3538
932.5422000000001
972.4602
1066.6193999999998
990.8123999999999
902.2697999999999
997.9008
1302.4728
1617.315
1719.294
1453.2978
1120.41
901.2354
723.0408
532.4088
377.829
271.2114
196.971
167.502
269.18519999999995
739.2456
1281.7127999999998
1446.2964
1267.6494
1033.4868000000001
934.7891999999999
971.307
1058.151
986.5913999999999
900.8112
997.0626
1288.626
1595.1882000000003
1689.2574000000002
1425.498
1101.8927999999999
890.4971999999999
716.43
528.672
377.4984
271.33320000000003
196.53240000000002
162.849
245.73539999999997
648.279
1111.0242
1252.7117999999998
1133.2913999999998
966.0335999999999
935.6777999999999
989.0904000000002
1050.8928
973.6637999999999
921.1374
1110.6348
1500.9264
1764.1991999999998
1762.8678
1431.0503999999999
1093.2636
894.615
734.4402
644.0238
524.313
366.88559999999995
265.2192
188.1306
165.18779999999998
221.06220000000002
365.8788
569.0472
736.5743999999999
993.3726000000001
1017.7158000000001
956.8428
919.0272
1036.086
1101.3185999999998
1201.0133999999998
1296.939
1335.4758
1231.4958
1003.4346
777.216
661.4232000000001
640.9488
590.8584000000001
519.708
400.6344
301.953
209.5746
155.97
142.9446
204.66060000000002
344.5398
573.5111999999999
701.2361999999999
740.5368000000001
631.2078
627.474
757.245
903.8892
1004.8530000000001
1188.6864
1308.6546
1215.7656000000002
1070.457
932.8134
750.2154
575.565
405.50759999999997
302.76840000000004
216.23520000000002
173.3112
148.26
258.2058
733.0788
1284.5328
1436.4732
1241.3154000000002
996.1110000000001
898.6206
940.9062000000001
1038.3876
970.6416
883.08
985.4753999999999
1293.63
1621.8372
1729.3572000000001
1471.6524
1141.2798
913.8581999999999
729.6576
536.1978
380.7888
272.1834
197.4438
168.87959999999998
269.34959999999995
742.4892
1299.3612
1478.4714000000001
1284.3066000000001
1029.0822
923.6406
967.5491999999999
1064.1996000000001
994.4226
907.9853999999999
999.7092
1298.619
1619.7294
1721.892
1461.333
1136.544
912.6366
729.1271999999999
535.7135999999999
380.38980000000004
274.0632
197.48340000000002
168.11579999999998
267.09659999999997
735.3468
1283.8313999999998
1451.5194
1273.971
1034.3538
932.5422000000001
972.4602
1066.6193999999998
990.8123999999999
902.2697999999999
997.9008
1302.4728
1617.315
1719.294
1453.2978
1120.41
901.2354
723.0408
532.4088
377.829
271.2114
196.971
167.502
269.18519999999995
739.2456
1281.7127999999998
1446.2964
1267.6494
1033.4868000000001
934.7891999999999
971.307
1058.151
986.5913999999999
900.8112
997.0626
1288.626
1595.1882000000003
1689.2574000000002
1425.498
1101.8927999999999
890.4971999999999
716.43
528.672
377.4984
271.33320000000003
196.53240000000002
162.849
245.73539999999997
648.279
1111.0242
1252.7117999999998
1133.2913999999998
966.0335999999999
935.6777999999999
989.0904000000002
1050.8928
973.6637999999999
921.1374
1110.6348
1500.9264
1764.1991999999998
1762.8678
1431.0503999999999
1093.2636
894.615
734.4402
644.0238
524.313
366.88559999999995
265.2192
188.1306
165.18779999999998
221.06220000000002
365.8788
569.0472
736.5743999999999
993.3726000000001
1017.7158000000001
956.8428
919.0272
1036.086
1101.3185999999998
1201.0133999999998
1296.939
1335.4758
1231.4958
1003.4346
777.216
661.4232000000001
640.9488
590.8584000000001
519.708
400.6344
301.953
209.5746
155.97
142.9446
204.66060000000002
344.5398
573.5111999999999
701.2361999999999
740.5368000000001
631.2078
627.474
757.245
903.8892
1004.8530000000001
1188.6864
1308.6546
1215.7656000000002
1070.457
932.8134
750.2154
575.565
405.50759999999997
302.76840000000004
216.23520000000002
173.3112
148.26
258.2058
733.0788
1284.5328
1436.4732
1241.3154000000002
996.1110000000001
898.6206
940.9062000000001
1038.3876
970.6416
883.08
985.4753999999999
1293.63
1621.8372
1729.3572000000001
1471.6524
1141.2798
913.8581999999999
729.6576
536.1978
380.7888
272.1834
197.4438
168.87959999999998
269.34959999999995
742.4892
1299.3612
1478.4714000000001
1284.3066000000001
1029.0822
923.6406
967.5491999999999
1064.1996000000001
994.4226
907.9853999999999
999.7092
1298.619
1619.7294
1721.892
1461.333
1136.544
912.6366
729.1271999999999
535.7135999999999
380.38980000000004
274.0632
197.48340000000002
168.11579999999998
267.09659999999997
735.3468
1283.8313999999998
1451.5194
1273.971
1034.3538
932.5422000000001
972.4602
1066.6193999999998
990.8123999999999
902.2697999999999
997.9008
1302.4728
1617.315
1719.294
1453.2978
1120.41
901.2354
723.0408
532.4088
377.829
271.2114
196.971
167.502
269.18519999999995
739.2456
1281.7127999999998
1446.2964
1267.6494
1033.4868000000001
934.7891999999999
971.307
1058.151
986.5913999999999
900.8112
997.0626
1288.626
1595.1882000000003
1689.2574000000002
1425.498
1101.8927999999999
890.4971999999999
716.43
528.672
377.4984
271.33320000000003
196.53240000000002
162.849
245.73539999999997
648.279
1111.0242
1252.7117999999998
1133.2913999999998
966.0335999999999
935.6777999999999
989.0904000000002
1050.8928
973.6637999999999
921.1374
1110.6348
1500.9264
1764.1991999999998
1762.8678
1431.0503999999999
1093.2636
894.615
734.4402
644.0238
524.313
366.88559999999995
265.2192
188.1306
165.18779999999998
221.06220000000002
365.8788
569.0472
736.5743999999999
993.3726000000001
1017.7158000000001
956.8428
919.0272
1036.086
1101.3185999999998
1201.0133999999998
1296.939
1335.4758
1231.4958
1003.4346
777.216
661.4232000000001
640.9488
590.8584000000001
519.708
400.6344
301.953
209.5746
155.97
142.9446
204.66060000000002
344.5398
573.5111999999999
701.2361999999999
740.5368000000001
631.2078
627.474
757.245
903.8892
1004.8530000000001
1188.6864
1308.6546
1215.7656000000002
1070.457
932.8134
750.2154
575.565
405.50759999999997
302.76840000000004
216.23520000000002
173.3112
148.26
258.2058
733.0788
1284.5328
1436.4732
1241.3154000000002
996.1110000000001
898.6206
940.9062000000001
1038.3876
970.6416
883.08
985.4753999999999
1293.63
1621.8372
1729.3572000000001
1471.6524
1141.2798
913.8581999999999
729.6576
536.1978
380.7888
272.1834
197.4438
168.87959999999998
269.34959999999995
742.4892
1299.3612
1478.4714000000001
1284.3066000000001
1029.0822
923.6406
967.5491999999999
1064.1996000000001
994.4226
907.9853999999999
999.7092
1298.619
1619.7294
1721.892
1461.333
1136.544
912.6366
729.1271999999999
535.7135999999999
380.38980000000004
274.0632
197.48340000000002
168.11579999999998
267.09659999999997
735.3468
1283.8313999999998
1451.5194
1273.971
1034.3538
932.5422000000001
972.4602
1066.6193999999998
990.8123999999999
902.2697999999999
997.9008
1302.4728
1617.315
1719.294
1453.2978
1120.41
901.2354
723.0408
532.4088
377.829
271.2114
196.971
167.502
269.18519999999995
739.2456
1281.7127999999998
1446.2964
1267.6494
1033.4868000000001
934.7891999999999
971.307
1058.151
986.5913999999999
900.8112
997.0626
1288.626
1595.1882000000003
1689.2574000000002
1425.498
1101.8927999999999
890.4971999999999
716.43
528.672
377.4984
271.33320000000003
196.53240000000002
162.849
245.73539999999997
648.279
1111.0242
1252.7117999999998
1133.2913999999998
966.0335999999999
935.6777999999999
989.0904000000002
1050.8928
973.6637999999999
921.1374
1110.6348
1500.9264
1764.1991999999998
1762.8678
1431.0503999999999
1093.2636
894.615
734.4402
644.0238
524.313
366.88559999999995
265.2192
188.1306
165.18779999999998
221.06220000000002
365.8788
569.0472
736.5743999999999
993.3726000000001
1017.7158000000001
956.8428
919.0272
1036.086
1101.3185999999998
1201.0133999999998
1296.939
1335.4758
1231.4958
1003.4346
777.216
661.4232000000001
640.9488
590.8584000000001
519.708
400.6344
301.953
209.5746
155.97
142.9446
204.66060000000002
344.5398
573.5111999999999
701.2361999999999
740.5368000000001
631.2078
627.474
757.245
903.8892
1004.8530000000001
1188.6864
1308.6546
1215.7656000000002
1070.457
932.8134
750.2154
575.565
405.50759999999997
302.76840000000004
216.23520000000002
173.3112
148.26
258.2058
733.0788
1284.5328
1436.4732
1241.3154000000002
996.1110000000001
898.6206
940.9062000000001
1038.3876
970.6416
883.08
985.4753999999999
1293.63
1621.8372
1729.3572000000001
1471.6524
1141.2798
913.8581999999999
729.6576
536.1978
380.7888
272.1834
197.4438
168.87959999999998
269.34959999999995
742.4892
1299.3612
1478.4714000000001
1284.3066000000001
1029.0822
923.6406
967.5491999999999
1064.1996000000001
994.4226
907.9853999999999
999.7092
1298.619
1619.7294
1721.892
1461.333
1136.544
912.6366
729.1271999999999
535.7135999999999
380.38980000000004
274.0632
197.48340000000002
168.11579999999998
267.09659999999997
735.3468
1283.8313999999998
1451.5194
1273.971
1034.3538
932.5422000000001
972.4602
1066.6193999999998
990.8123999999999
902.2697999999999
997.9008
1302.4728
1617.315
1719.294
1453.2978
1120.41
901.2354
723.0408
532.4088
377.829
271.2114
196.971
167.502
269.18519999999995
739.2456
1281.7127999999998
1446.2964
1267.6494
1033.4868000000001
934.7891999999999
971.307
1058.151
986.5913999999999
900.8112
997.0626
1288.626
1595.1882000000003
1689.2574000000002
1425.498
1101.8927999999999
890.4971999999999
716.43
528.672
377.4984
271.33320000000003
196.53240000000002
162.849
245.73539999999997
648.279
1111.0242
1252.7117999999998
1133.2913999999998
966.0335999999999
935.6777999999999
989.0904000000002
1050.8928
973.6637999999999
921.1374
1110.6348
1500.9264
1764.1991999999998
1762.8678
1431.0503999999999
1093.2636
894.615
734.4402
644.0238
524.313
366.88559999999995
265.2192
188.1306
165.18779999999998
221.06220000000002
365.8788
569.0472
736.5743999999999
993.3726000000001
1017.7158000000001
956.8428
919.0272
1036.086
1101.3185999999998
1201.0133999999998
1296.939
1335.4758
1231.4958
1003.4346
777.216
661.4232000000001
640.9488
590.8584000000001
519.708
400.6344
301.953
209.5746
155.97
142.9446
204.66060000000002
344.5398
573.5111999999999
701.2361999999999
740.5368000000001
631.2078
627.474
757.245
903.8892
1004.8530000000001
1188.6864
1308.6546
1215.7656000000002
1070.457
932.8134
750.2154
575.565
405.50759999999997
302.76840000000004
216.23520000000002
173.3112
148.26
258.2058
733.0788
1284.5328
1436.4732
1241.3154000000002
996.1110000000001
898.6206
940.9062000000001
1038.3876
970.6416
883.08
985.4753999999999
1293.63
1621.8372
1729.3572000000001
1471.6524
1141.2798
913.8581999999999
729.6576
536.1978
380.7888
272.1834
197.4438
168.87959999999998
269.34959999999995
742.4892
1299.3612
1478.4714000000001
1284.3066000000001
1029.0822
923.6406
967.5491999999999
1064.1996000000001
994.4226
907.9853999999999
999.7092
1298.619
1619.7294
1721.892
1461.333
1136.544
912.6366
729.1271999999999
535.7135999999999
380.38980000000004
274.0632
197.48340000000002
168.11579999999998
267.09659999999997
735.3468
1283.8313999999998
1451.5194
1273.971
1034.3538
932.5422000000001
972.4602
1066.6193999999998
990.8123999999999
902.2697999999999
997.9008
1302.4728
1617.315
1719.294
1453.2978
1120.41
901.2354
723.0408
532.4088
377.829
271.2114
196.971
167.502
269.18519999999995
739.2456
1281.7127999999998
1446.2964
1267.6494
1033.4868000000001
934.7891999999999
971.307
1058.151
986.5913999999999
900.8112
997.0626
1288.626
1595.1882000000003
1689.2574000000002
1425.498
1101.8927999999999
890.4971999999999
716.43
528.672
377.4984
271.33320000000003
196.53240000000002
162.849
245.73539999999997
648.279
1111.0242
1252.7117999999998
1133.2913999999998
966.0335999999999
935.6777999999999
989.0904000000002
1050.8928
973.6637999999999
921.1374
1110.6348
1500.9264
1764.1991999999998
1762.8678
1431.0503999999999
1093.2636
894.615
734.4402
644.0238
524.313
366.88559999999995
265.2192
188.1306
165.18779999999998
221.06220000000002
365.8788
569.0472
736.5743999999999
993.3726000000001
1017.7158000000001
956.8428
919.0272
1036.086
1101.3185999999998
1201.0133999999998
1296.939
1335.4758
1231.4958
1003.4346
777.216
661.4232000000001
640.9488
590.8584000000001
519.708
400.6344
301.953
209.5746
155.97
142.9446
204.66060000000002
344.5398
573.5111999999999
701.2361999999999
740.5368000000001
631.2078
627.474
757.245
903.8892
1004.8530000000001
1188.6864
1308.6546
1215.7656000000002
1070.457
932.8134
750.2154
575.565
405.45480000000003
302.808
216.288
172.7982
146.8998
252.52439999999999
708.9018000000001
1230.7631999999999
1361.7942
1160.1066
918.7751999999999
824.5272
868.6062000000001
959.502
884.9034
802.4225999999999
898.1261999999999
1188.4056
1488.5988
1582.0986
1340.5194
1029.0282
824.5806
655.9596000000001
478.4094
338.8032
242.4618
175.7436
150.99179999999998
251.7726
705.8322
1232.8848
1385.4294
1193.136
947.7851999999999
852.2352
888.1368
975.3995999999999
899.7384000000001
817.6955999999999
906.2958000000001
1186.8012
1478.8188
1573.0638000000001
1328.9184
1026.6906
824.385
658.6494
482.139
341.02919999999995
243.95940000000002
176.45520000000002
151.3176
252.2274
700.3386
1211.2182000000003
1360.1363999999999
1183.2276
949.1513999999999
852.7986
889.9836000000001
967.2642
891.3288
813.4284
908.4324000000001
1186.6835999999998
1472.5877999999998
1560.5868
1309.3074
1009.1346
812.2722
651.255
476.4024
338.3406
243.13680000000002
176.0958
151.416
251.4702
695.028
1198.5714
1339.7226
1164.966
944.6844
856.1063999999999
890.3934000000002
964.1442
886.7586
813.9936000000001
903.2202
1167.1776
1438.281
1525.7045999999998
1281.0942000000002
988.7951999999999
799.2528000000001
642.3288
472.0944
333.9732
240.4998
174.105
145.8024
226.4148
609.3653999999999
1036.1694
1161.1812
1041.8838
884.2386000000001
859.1778
902.937
951.5964000000001
877.2342
829.6812
1011.0768
1379.2566000000002
1611.4782000000002
1605.1398000000002
1293.1608
988.5534
809.5685999999998
662.0772
584.6561999999999
473.2674
330.62640000000005
238.2792
169.8942
148.3656
204.27659999999997
341.2218
521.3862
674.5704
913.275
935.2752
871.5504
828.7776
932.862
987.9306
1083.7398
1174.2942
1208.1527999999998
1110.8202
898.1447999999999
694.1718000000001
592.7231999999999
580.4064000000001
536.9675999999998
470.58959999999996
363.4266
276.465
190.026
141.3354
128.9754
184.55459999999997
318.6876
524.1102
636.2651999999999
670.6518000000001
571.593
568.8642
677.7137999999999
809.175
908.3166
1086.5046
1214.8883999999998
1130.655
996.6822000000002
867.8646
695.3106
531.1038000000001
375.17940000000004
280.956
199.44480000000001
158.9832
136.6884
246.00600000000003
704.6262
1227.5754
1359.6773999999998
1158.7541999999999
917.91
823.977
868.3122
959.3676
884.811
802.3806
898.1178000000001
1188.4056
1488.5946000000001
1582.0986
1340.5194
1029.0282
824.5806
655.9596000000001
478.4094
338.8032
242.4618
175.7436
150.99179999999998
251.7726
705.8322
1232.8848
1385.4294
1193.136
947.7851999999999
852.2352
888.1368
975.3995999999999
899.7384000000001
817.6955999999999
906.2958000000001
1186.8012
1478.8188
1573.0638000000001
1328.9184
1026.6906
824.385
658.6494
482.139
341.02919999999995
243.95940000000002
176.45520000000002
151.3176
252.2274
700.3386
1211.2182000000003
1360.1363999999999
1183.2276
949.1513999999999
852.7986
889.9836000000001
967.2642
891.3288
813.4284
908.4324000000001
1186.6835999999998
1472.5877999999998
1560.5868
1309.3074
1009.1346
812.2722
651.255
476.4024
338.3406
243.13680000000002
176.0958
151.416
251.4702
695.028
1198.5714
1339.7226
1164.966
944.6844
856.1063999999999
890.3934000000002
964.1442
886.7586
813.9936000000001
903.2202
1167.1776
1438.281
1525.7045999999998
1281.0942000000002
988.7951999999999
799.2528000000001
642.3288
472.0944
333.9732
240.4998
174.105
145.8024
226.4148
609.3653999999999
1036.1694
1161.1812
1041.8838
884.2386000000001
859.1778
902.937
951.5964000000001
877.2342
829.6812
1011.0768
1379.2566000000002
1611.4782000000002
1605.1398000000002
1293.1608
988.5534
809.5685999999998
662.0772
584.6561999999999
473.2674
330.62640000000005
238.2792
169.8942
148.3656
204.27659999999997
341.2218
521.3862
674.5704
913.275
935.2752
871.5504
828.7776
932.862
987.9306
1083.7398
1174.2942
1208.1527999999998
1110.8202
898.1447999999999
694.1718000000001
592.7231999999999
580.4064000000001
536.9675999999998
470.58959999999996
363.4266
276.465
190.026
141.3354
128.9754
184.55459999999997
318.6876
524.1102
636.2651999999999
670.6518000000001
571.593
568.8642
677.7137999999999
809.175
908.3166
1086.5046
1214.8883999999998
1130.655
996.6822000000002
867.8646
695.3106
531.1038000000001
375.17940000000004
280.956
199.44480000000001
158.9832
136.6884
246.00600000000003
704.6262
1227.5754
1359.6773999999998
1158.7541999999999
917.91
823.977
868.3122
959.3676
884.811
802.3806
898.1178000000001
1188.4056
1488.5946000000001
1582.0986
1340.5194
1029.0282
824.5806
655.9596000000001
478.4094
338.8032
242.4618
175.7436
150.99179999999998
251.7726
705.8322
1232.8848
1385.4294
1193.136
947.7851999999999
852.2352
888.1368
975.3995999999999
899.7384000000001
817.6955999999999
906.2958000000001
1186.8012
1478.8188
1573.0638000000001
1328.9184
1026.6906
824.385
658.6494
482.139
341.02919999999995
243.95940000000002
176.45520000000002
151.3176
252.2274
700.3386
1211.2182000000003
1360.1363999999999
1183.2276
949.1513999999999
852.7986
889.9836000000001
967.2642
891.3288
813.4284
908.4324000000001
1186.6835999999998
1472.5877999999998
1560.5868
1309.3074
1009.1346
812.2722
651.255
476.4024
338.3406
243.13680000000002
176.0958
151.416
251.4702
695.028
1198.5714
1339.7226
1164.966
944.6844
856.1063999999999
890.3934000000002
964.1442
886.7586
813.9936000000001
903.2202
1167.1776
1438.281
1525.7045999999998
1281.0942000000002
988.7951999999999
799.2528000000001
642.3288
472.0944
333.9732
240.4998
174.105
145.8024
226.4148
609.3653999999999
1036.1694
1161.1812
1041.8838
884.2386000000001
859.1778
902.937
951.5964000000001
877.2342
829.6812
1011.0768
1379.2566000000002
1611.4782000000002
1605.1398000000002
1293.1608
988.5534
809.5685999999998
662.0772
584.6561999999999
473.2674
330.62640000000005
238.2792
169.8942
148.3656
204.27659999999997
341.2218
521.3862
674.5704
913.275
935.2752
871.5504
828.7776
932.862
987.9306
1083.7398
1174.2942
1208.1527999999998
1110.8202
898.1447999999999
694.1718000000001
592.7231999999999
580.4064000000001
536.9675999999998
470.58959999999996
363.4266
276.465
190.026
141.3354
128.9754
184.55459999999997
318.6876
524.1102
636.2651999999999
670.6518000000001
571.593
568.8642
677.7137999999999
809.175
908.3166
1086.5046
1214.8883999999998
1130.655
996.6822000000002
867.8646
695.3106
531.1038000000001
375.17940000000004
280.956
199.44480000000001
158.9832
136.6884
246.00600000000003
704.6262
1227.5754
1359.6773999999998
1158.7541999999999
917.91
823.977
868.3122
959.3676
884.811
802.3806
898.1178000000001
1188.4056
1488.5946000000001
1582.0986
1340.5194
1029.0282
824.5806
655.9596000000001
478.4094
338.8032
242.4618
175.7436
150.99179999999998
251.7726
705.8322
1232.8848
1385.4294
1193.136
947.7851999999999
852.2352
888.1368
975.3995999999999
899.7384000000001
817.6955999999999
906.2958000000001
1186.8012
1478.8188
1573.0638000000001
1328.9184
1026.6906
824.385
658.6494
482.139
341.02919999999995
243.95940000000002
176.45520000000002
151.3176
252.2274
700.3386
1211.2182000000003
1360.1363999999999
1183.2276
949.1513999999999
852.7986
889.9836000000001
967.2642
891.3288
813.4284
908.4324000000001
1186.6835999999998
1472.5877999999998
1560.5868
1309.3074
1009.1346
812.2722
651.255
476.4024
338.3406
243.13680000000002
176.0958
151.416
251.4702
695.028
1198.5714
1339.7226
1164.966
944.6844
856.1063999999999
890.3934000000002
964.1442
886.7586
813.9936000000001
903.2202
1167.1776
1438.281
1525.7045999999998
1281.0942000000002
988.7951999999999
799.2528000000001
642.3288
472.0944
333.9732
240.4998
174.105
145.8024
226.4148
609.3653999999999
1036.1694
1161.1812
1041.8838
884.2386000000001
859.1778
902.937
951.5964000000001
877.2342
829.6812
1011.0768
1379.2566000000002
1611.4782000000002
1605.1398000000002
1293.1608
988.5534
809.5685999999998
662.0772
584.6561999999999
473.2674
330.62640000000005
238.2792
169.8942
148.3656
204.27659999999997
341.2218
521.3862
674.5704
913.275
935.2752
871.5504
828.7776
932.862
987.9306
1083.7398
1174.2942
1208.1527999999998
1110.8202
898.1447999999999
694.1718000000001
592.7231999999999
580.4064000000001
536.9675999999998
470.58959999999996
363.4266
276.465
190.026
141.3354
128.9754
184.55459999999997
318.6876
524.1102
636.2651999999999
670.6518000000001
571.593
568.8642
677.7137999999999
809.175
908.3166
1086.5046
1214.8883999999998
1130.655
996.6822000000002
867.8646
695.3106
531.1038000000001
375.17940000000004
280.956
199.44480000000001
158.9832
136.6884
246.00600000000003
704.6262
1227.5754
1359.6773999999998
1158.7541999999999
917.91
823.977
868.3122
959.3676
884.811
802.3806
898.1178000000001
1188.4056
1488.5946000000001
1582.0986
1340.5194
1029.0282
824.5806
655.9596000000001
478.4094
338.8032
242.4618
175.7436
150.99179999999998
251.7726
705.8322
1232.8848
1385.4294
1193.136
947.7851999999999
852.2352
888.1368
975.3995999999999
899.7384000000001
817.6955999999999
906.2958000000001
1186.8012
1478.8188
1573.0638000000001
1328.9184
1026.6906
824.385
658.6494
482.139
341.02919999999995
243.95940000000002
176.45520000000002
151.3176
252.2274
700.3386
1211.2182000000003
1360.1363999999999
1183.2276
949.1513999999999
852.7986
889.9836000000001
967.2642
891.3288
813.4284
908.4324000000001
1186.6835999999998
1472.5877999999998
1560.5868
1309.3074
1009.1346
812.2722
651.255
476.4024
338.3406
243.13680000000002
176.0958
151.416
251.4702
695.028
1198.5714
1339.7226
1164.966
944.6844
856.1063999999999
890.3934000000002
964.1442
886.7586
813.9936000000001
903.2202
1167.1776
1438.281
1525.7045999999998
1281.0942000000002
988.7951999999999
799.2528000000001
642.3288
472.0944
333.9732
240.4998
174.105
145.8024
226.4148
609.3653999999999
1036.1694
1161.1812
1041.8838
884.2386000000001
859.1778
902.937
951.5964000000001
877.2342
829.6812
1011.0768
1379.2566000000002
1611.4782000000002
1605.1398000000002
1293.1608
988.5534
809.5685999999998
662.0772
584.6561999999999
473.2674
330.62640000000005
238.2792
169.8942
148.3656
204.27659999999997
341.2218
521.3862
674.5704
913.275
935.2752
871.5504
828.7776
932.862
987.9306
1083.7398
1174.2942
1208.1527999999998
1110.8202
898.1447999999999
694.1718000000001
592.7231999999999
580.4064000000001
536.9675999999998
470.58959999999996
363.4266
276.465
190.026
141.3354
128.9754
184.55459999999997
318.6876
524.1102
636.2651999999999
670.6518000000001
571.593
568.8642
677.7137999999999
809.175
908.3166
1086.5046
1214.8883999999998
1130.655
996.6822000000002
867.8646
695.3106
531.1038000000001
375.17940000000004
280.956
199.44480000000001
158.9832
136.6884
246.00600000000003
704.6262
1227.5754
1359.6773999999998
1158.7541999999999
917.91
823.977
868.3122
959.3676
884.811
802.3806
898.1178000000001
1188.4056
1488.5946000000001
1582.0986
1340.5194
1029.0282
824.5806
655.9596000000001
478.4094
338.8032
242.4618
175.7436
150.99179999999998
251.7726
705.8322
1232.8848
1385.4294
1193.136
947.7851999999999
852.2352
888.1368
975.3995999999999
899.7384000000001
817.6955999999999
906.2958000000001
1186.8012
1478.8188
1573.0638000000001
1328.9184
1026.6906
824.385
658.6494
482.139
341.02919999999995
243.95940000000002
176.45520000000002
151.3176
252.2274
700.3386
1211.2182000000003
1360.1363999999999
1183.2276
949.1513999999999
852.7986
889.9836000000001
967.2642
891.3288
813.4284
908.4324000000001
1186.6835999999998
1472.5877999999998
1560.5868
1309.3074
1009.1346
812.2722
651.255
476.4024
338.3406
243.13680000000002
176.0958
151.416
251.4702
695.028
1198.5714
1339.7226
1164.966
944.6844
856.1063999999999
890.3934000000002
964.1442
886.7586
813.9936000000001
903.2202
1167.1776
1438.281
1525.7045999999998
1281.0942000000002
988.7951999999999
799.2528000000001
642.3288
472.0944
333.9732
240.4998
174.105
145.8024
226.4148
609.3653999999999
1036.1694
1161.1812
1041.8838
884.2386000000001
859.1778
902.937
951.5964000000001
877.2342
829.6812
1011.0768
1379.2566000000002
1611.4782000000002
1605.1398000000002
1293.1608
988.5534
809.5685999999998
662.0772
584.6561999999999
473.2674
330.62640000000005
238.2792
169.8942
148.3656
204.27659999999997
341.2218
521.3862
674.5704
913.275
935.2752
871.5504
828.7776
932.862
987.9306
1083.7398
1174.2942
1208.1527999999998
1110.8202
898.1447999999999
694.1718000000001
592.7231999999999
580.4064000000001
536.9675999999998
470.58959999999996
363.4266
276.465
190.026
141.3354
128.9754
184.55459999999997
318.6876
524.1102
636.2651999999999
670.6518000000001
571.593
568.8642
677.7137999999999
809.175
908.3166
1086.5046
1214.8883999999998
1130.655
996.6822000000002
867.8646
695.3106
531.1038000000001
375.17940000000004
280.956
199.44480000000001
158.9832
136.6884
246.00600000000003
704.6262
1227.5754
1359.6773999999998
1158.7541999999999
917.91
823.977
868.3122
959.3676
884.811
802.3806
898.1178000000001
1188.4056
1488.5946000000001
1582.0986
1340.5194
1029.0282
824.5806
655.9596000000001
478.4094
338.8032
242.4618
175.7436
150.99179999999998
251.7726
705.8322
1232.8848
1385.4294
1193.136
947.7851999999999
852.2352
888.1368
975.3995999999999
899.7384000000001
817.6955999999999
906.2958000000001
1186.8012
1478.8188
1573.0638000000001
1328.9184
1026.6906
824.385
658.6494
482.139
341.02919999999995
243.95940000000002
176.45520000000002
151.3176
252.2274
700.3386
1211.2182000000003
1360.1363999999999
1183.2276
949.1513999999999
852.7986
889.9836000000001
967.2642
891.3288
813.4284
908.4324000000001
1186.6835999999998
1472.5877999999998
1560.5868
1309.3074
1009.1346
812.2722
651.255
476.4024
338.3406
243.13680000000002
176.0958
151.416
251.4702
695.028
1198.5714
1339.7226
1164.966
944.6844
856.1063999999999
890.3934000000002
964.1442
886.7586
813.9936000000001
903.2202
1167.1776
1438.281
1525.7045999999998
1281.0942000000002
988.7951999999999
799.2528000000001
642.3288
472.0944
333.9732
240.4998
174.105
145.8024
226.4148
609.3653999999999
1036.1694
1161.1812
1041.8838
884.2386000000001
859.1778
902.937
951.5964000000001
877.2342
829.6812
1011.0768
1379.2566000000002
1611.4782000000002
1605.1398000000002
1293.1608
988.5534
809.5685999999998
662.0772
584.6561999999999
473.2674
330.62640000000005
238.2792
169.8942
148.3656
204.27659999999997
341.2218
521.3862
674.5704
913.275
935.2752
871.5504
828.7776
932.862
987.9306
1083.7398
1174.2942
1208.1527999999998
1110.8202
898.1447999999999
694.1718000000001
592.7231999999999
580.4064000000001
536.9675999999998
470.58959999999996
363.4266
276.465
190.026
141.3354
128.9754
184.55459999999997
318.6876
524.1102
636.2651999999999
670.6518000000001
571.593
568.8642
677.7137999999999
809.175
908.3166
1086.5046
1214.8883999999998
1130.655
996.6822000000002
867.8646
695.3106
531.1038000000001
375.17940000000004
280.956
199.44480000000001
158.9832
136.6884
246.00600000000003
704.6262
1227.5754
1359.6773999999998
1158.7541999999999
917.91
823.977
868.3122
959.3676
884.811
802.3806
898.1178000000001
1188.4056
1488.5946000000001
1582.0986
1340.5194
1029.0282
824.5806
655.9596000000001
478.4094
338.8032
242.4618
175.7436
150.99179999999998
251.7726
705.8322
1232.8848
1385.4294
1193.136
947.7851999999999
852.2352
888.1368
975.3995999999999
899.7384000000001
817.6955999999999
906.2958000000001
1186.8012
1478.8188
1573.0638000000001
1328.9184
1026.6906
824.385
658.6494
482.139
341.02919999999995
243.95940000000002
176.45520000000002
151.3176
252.2274
700.3386
1211.2182000000003
1360.1363999999999
1183.2276
949.1513999999999
852.7986
889.9836000000001
967.2642
891.3288
813.4284
908.4324000000001
1186.6835999999998
1472.5877999999998
1560.5868
1309.3074
1009.1346
812.2722
651.255
476.4024
338.3406
243.13680000000002
176.0958
151.416
251.4702
695.028
1198.5714
1339.7226
1164.966
944.6844
856.1063999999999
890.3934000000002
964.1442
886.7586
813.9936000000001
903.2202
1167.1776
1438.281
1525.7045999999998
1281.0942000000002
988.7951999999999
799.2528000000001
642.3288
472.0944
333.9732
240.4998
174.105
145.8024
226.4148
609.3653999999999
1036.1694
1161.1812
1041.8838
884.2386000000001
859.1778
902.937
951.5964000000001
877.2342
829.6812
1011.0768
1379.2566000000002
1611.4782000000002
1605.1398000000002
1293.1608
988.5534
809.5685999999998
662.0772
584.6561999999999
473.2674
330.62640000000005
238.2792
169.8942
148.3656
204.27659999999997
341.2218
521.3862
674.5704
913.275
935.2752
871.5504
828.7776
932.862
987.9306
1083.7398
1174.2942
1208.1527999999998
1110.8202
898.1447999999999
694.1718000000001
592.7231999999999
580.4064000000001
536.9675999999998
470.58959999999996
363.4266
276.465
190.026
141.3354
128.9754
184.55459999999997
318.6876
524.1102
636.2651999999999
670.6518000000001
571.593
568.8642
677.7137999999999
809.175
908.3166
1086.5046
1214.8883999999998
1130.655
996.6822000000002
867.8646
695.3106
531.1038000000001
375.17940000000004
280.956
199.44480000000001
158.9832
136.6884
246.00600000000003
704.6262
1227.5754
1359.6773999999998
1158.7541999999999
917.91
823.977
868.3122
959.3676
884.811
802.3806
898.1178000000001
1188.4056
1488.5946000000001
1582.0986
1340.5194
1029.0282
824.5806
655.9596000000001
478.4094
338.8032
242.4618
175.7436
150.99179999999998
251.7726
705.8322
1232.8848
1385.4294
1193.136
947.7851999999999
852.2352
888.1368
975.3995999999999
899.7384000000001
817.6955999999999
906.2958000000001
1186.8012
1478.8188
1573.0638000000001
1328.9184
1026.6906
824.385
658.6494
482.139
341.02919999999995
243.95940000000002
176.45520000000002
151.3176
252.2274
700.3386
1211.2182000000003
1360.1363999999999
1183.2276
949.1513999999999
852.7986
889.9836000000001
967.2642
891.3288
813.4284
908.4324000000001
1186.6835999999998
1472.5877999999998
1560.5868
1309.3074
1009.1346
812.2722
651.255
476.4024
338.3406
243.13680000000002
176.0958
151.416
251.4702
695.028
1198.5714
1339.7226
1164.966
944.6844
856.1063999999999
890.3934000000002
964.1442
886.7586
813.9936000000001
903.2202
1167.1776
1438.281
1525.7045999999998
1281.0942000000002
988.7951999999999
799.2528000000001
642.3288
472.0944
333.9732
240.4998
174.105
145.8024
226.4148
609.3653999999999
1036.1694
1161.1812
1041.8838
884.2386000000001
859.1778
902.937
951.5964000000001
877.2342
829.6812
1011.0768
1379.2566000000002
1611.4782000000002
1605.1398000000002
1293.1608
988.5534
809.5685999999998
662.0772
584.6561999999999
473.2674
330.62640000000005
238.2792
169.8942
148.3656
204.27659999999997
341.2218
521.3862
674.5704
913.275
935.2752
871.5504
828.7776
932.862
987.9306
1083.7398
1174.2942
1208.1527999999998
1110.8202
898.1447999999999
694.1718000000001
592.7231999999999
580.4064000000001
536.9675999999998
470.58959999999996
363.4266
276.465
190.026
141.3354
128.9754
184.55459999999997
318.6876
524.1102
636.2651999999999
670.6518000000001
571.593
568.8642
677.7137999999999
809.175
908.3166
1086.5046
1214.8883999999998
1130.655
996.6822000000002
867.8646
695.3106
531.1038000000001
375.17940000000004
280.956
199.44480000000001
158.9832
136.6884
246.00600000000003
704.6262
1227.5754
1359.6773999999998
1158.7541999999999
917.91
823.977
868.3122
959.3676
884.811
802.3806
898.1178000000001
1188.4056
1488.5946000000001
1582.0986
1340.5194
1029.0282
824.5806
655.9596000000001
478.4094
338.8032
242.4618
175.7436
150.99179999999998
251.7726
705.8322
1232.8848
1385.4294
1193.136
947.7851999999999
852.2352
888.1368
975.3995999999999
899.7384000000001
817.6955999999999
906.2958000000001
1186.8012
1478.8188
1573.0638000000001
1328.9184
1026.6906
824.385
658.6494
482.139
341.02919999999995
243.95940000000002
176.45520000000002
151.3176
252.2274
700.3386
1211.2182000000003
1360.1363999999999
1183.2276
949.1513999999999
852.7986
889.9836000000001
967.2642
891.3288
813.4284
908.4324000000001
1186.6835999999998
1472.5877999999998
1560.5868
1309.3074
1009.1346
812.2722
651.255
476.4024
338.3406
243.13680000000002
176.0958
151.416
251.4702
695.028
1198.5714
1339.7226
1164.966
944.6844
856.1063999999999
890.3934000000002
964.1442
886.7586
813.9936000000001
903.2202
1167.1776
1438.281
1525.7045999999998
1281.0942000000002
988.7951999999999
799.2528000000001
642.3288
472.0944
333.9732
240.4998
174.105
145.8024
226.4148
609.3653999999999
1036.1694
1161.1812
1041.8838
884.2386000000001
859.1778
902.937
951.5964000000001
877.2342
829.6812
1011.0768
1379.2566000000002
1611.4782000000002
1605.1398000000002
1293.1608
988.5534
809.5685999999998
662.0772
584.6561999999999
473.2674
330.62640000000005
238.2792
169.8942
148.3656
204.27659999999997
341.2218
521.3862
674.5704
913.275
935.2752
871.5504
828.7776
932.862
987.9306
1083.7398
1174.2942
1208.1527999999998
1110.8202
898.1447999999999
694.1718000000001
592.7231999999999
580.4064000000001
536.9675999999998
470.58959999999996
363.4266
276.465
190.026
141.3354
128.9754
184.55459999999997
318.6876
524.1102
636.2651999999999
670.6518000000001
571.593
568.8642
677.7137999999999
809.175
908.3166
1086.5046
1214.8883999999998
1130.655
996.6822000000002
867.8646
695.3106
531.1038000000001
375.17940000000004
280.956
199.44480000000001
158.9832
136.6884
246.00600000000003
704.6262
1227.5754
1359.6773999999998
1158.7541999999999
917.91
823.977
868.3122
959.3676
884.811
802.3806
898.1178000000001
1188.4056
1488.5946000000001
1582.0986
1340.5194
1029.0282
824.5806
655.9596000000001
478.4094
338.8032
242.4618
175.7436
150.99179999999998
251.7726
705.8322
1232.8848
1385.4294
1193.136
947.7851999999999
852.2352
888.1368
975.3995999999999
899.7384000000001
817.6955999999999
906.2958000000001
1186.8012
1478.8188
1573.0638000000001
1328.9184
1026.6906
824.385
658.6494
482.139
341.02919999999995
243.95940000000002
176.45520000000002
151.3176
252.2274
700.3386
1211.2182000000003
1360.1363999999999
1183.2276
949.1513999999999
852.7986
889.9836000000001
967.2642
891.3288
813.4284
908.4324000000001
1186.6835999999998
1472.5877999999998
1560.5868
1309.3074
1009.1346
812.2722
651.255
476.4024
338.3406
243.13680000000002
176.0958
151.416
251.4702
695.028
1198.5714
1339.7226
1164.966
944.6844
856.1063999999999
890.3934000000002
964.1442
886.7586
813.9936000000001
903.2202
1167.1776
1438.281
1525.7045999999998
1281.0942000000002
988.7951999999999
799.2528000000001
642.3288
472.0944
333.9732
240.4998
174.105
145.8024
226.4148
609.3653999999999
1036.1694
1161.1812
1041.8838
884.2386000000001
859.1778
902.937
951.5964000000001
877.2342
829.6812
1011.0768
1379.2566000000002
1611.4782000000002
1605.1398000000002
1293.1608
988.5534
809.5685999999998
662.0772
584.6561999999999
473.2674
330.62640000000005
238.2792
169.8942
148.3656
204.27659999999997
341.2218
521.3862
674.5704
913.275
935.2752
871.5504
828.7776
932.862
987.9306
1083.7398
1174.2942
1208.1527999999998
1110.8202
898.1447999999999
694.1718000000001
592.7231999999999
580.4064000000001
536.9675999999998
470.58959999999996
363.4266
276.465
190.026
141.3354
128.9754
184.55459999999997
318.6876
524.1102
636.2651999999999
670.6518000000001
571.593
568.8642
677.7137999999999
809.175
908.3166
1086.5046
1214.8883999999998
1130.655
996.6822000000002
867.8646
695.3106
531.1038000000001
375.17940000000004
280.956
199.44480000000001
158.9832
136.6884
246.00600000000003
704.6262
1227.5754
1359.6773999999998
1158.7541999999999
917.91
823.977
868.3122
959.3676
884.811
802.3806
898.1178000000001
1188.4056
1488.5946000000001
1582.0986
1340.5194
1029.0282
824.5806
655.9596000000001
478.4094
338.8032
242.4618
175.7436
150.99179999999998
251.7726
705.8322
1232.8848
1385.4294
1193.136
947.7851999999999
852.2352
888.1368
975.3995999999999
899.7384000000001
817.6955999999999
906.2958000000001
1186.8012
1478.8188
1573.0638000000001
1328.9184
1026.6906
824.385
658.6494
482.139
341.02919999999995
243.95940000000002
176.45520000000002
151.3176
252.2274
700.3386
1211.2182000000003
1360.1363999999999
1183.2276
949.1513999999999
852.7986
889.9836000000001
967.2642
891.3288
813.4284
908.4324000000001
1186.6835999999998
1472.5877999999998
1560.5868
1309.3074
1009.1346
812.2722
651.255
476.4024
338.3406
243.13680000000002
176.0958
151.416
251.4702
695.028
1198.5714
1339.7226
1164.966
944.6844
856.1063999999999
890.3934000000002
964.1442
886.7586
813.9936000000001
903.2202
1167.1776
1438.281
1525.7045999999998
1281.0942000000002
988.7951999999999
799.2528000000001
642.3288
472.0944
333.9732
240.4998
174.105
145.8024
226.4148
609.3653999999999
1036.1694
1161.1812
1041.8838
884.2386000000001
859.1778
902.937
951.5964000000001
877.2342
829.6812
1011.0768
1379.2566000000002
1611.4782000000002
1605.1398000000002
1293.1608
988.5534
809.5685999999998
662.0772
584.6561999999999
473.2674
330.62640000000005
238.2792
169.8942
148.3656
204.27659999999997
341.2218
521.3862
674.5704
913.275
935.2752
871.5504
828.7776
932.862
987.9306
1083.7398
1174.2942
1208.1527999999998
1110.8202
898.1447999999999
694.1718000000001
592.7231999999999
580.4064000000001
536.9675999999998
470.58959999999996
363.4266
276.465
190.026
141.3354
128.9754
184.55459999999997
318.6876
524.1102
636.2651999999999
670.6518000000001
571.593
568.8642
677.7137999999999
809.175
908.3166
1086.5046
1214.8883999999998
1130.655
996.6822000000002
867.8646
695.3106
531.1038000000001
375.17940000000004
280.956
199.44480000000001
158.9832
136.6884
246.00600000000003
704.6262
1227.5754
1359.6773999999998
1158.7541999999999
917.91
823.977
868.3122
959.3676
884.811
802.3806
898.1178000000001
1188.4056
1488.5946000000001
1582.0986
1340.5194
1029.0282
824.5806
655.9596000000001
478.4094
338.8032
242.4618
175.7436
150.99179999999998
251.7726
705.8322
1232.8848
1385.4294
1193.136
947.7851999999999
852.2352
888.1368
975.3995999999999
899.7384000000001
817.6955999999999
906.2958000000001
1186.8012
1478.8188
1573.0638000000001
1328.9184
1026.6906
824.385
658.6494
482.139
341.02919999999995
243.95940000000002
176.45520000000002
151.3176
252.2274
700.3386
1211.2182000000003
1360.1363999999999
1183.2276
949.1513999999999
852.7986
889.9836000000001
967.2642
891.3288
813.4284
908.4324000000001
1186.6835999999998
1472.5877999999998
1560.5868
1309.3074
1009.1346
812.2722
651.255
476.4024
338.3406
243.13680000000002
176.0958
151.416
251.4702
695.028
1198.5714
1339.7226
1164.966
944.6844
856.1063999999999
890.3934000000002
964.1442
886.7586
813.9936000000001
903.2202
1167.1776
1438.281
1525.7045999999998
1281.0942000000002
988.7951999999999
799.2528000000001
642.3288
472.0944
333.9732
240.4998
174.105
145.8024
226.4148
609.3653999999999
1036.1694
1161.1812
1041.8838
884.2386000000001
859.1778
902.937
951.5964000000001
877.2342
829.6812
1011.0768
1379.2566000000002
1611.4782000000002
1605.1398000000002
1293.1608
988.5534
809.5685999999998
662.0772
584.6561999999999
473.2674
330.62640000000005
238.2792
169.8942
148.3656
204.27659999999997
341.2218
521.3862
674.5704
913.275
935.2752
871.5504
828.7776
932.862
987.9306
1083.7398
1174.2942
1208.1527999999998
1110.8202
898.1447999999999
694.1718000000001
592.7231999999999
580.4064000000001
536.9675999999998
470.58959999999996
363.4266
276.465
190.026
141.3354
128.9754
184.55459999999997
318.6876
524.1102
636.2651999999999
670.6518000000001
571.593
568.8642
677.7137999999999
809.175
908.3166
1086.5046
1214.8883999999998
1130.655
996.6822000000002
867.8646
695.3106
531.1038000000001
375.17940000000004
280.956
199.44480000000001
158.9832
136.6884
246.00600000000003
704.6262
1227.5754
1359.6773999999998
1158.7541999999999
917.91
823.977
868.3122
959.3676
884.811
802.3806
898.1178000000001
1188.4056
1488.5946000000001
1582.0986
1340.5194
1029.0282
824.5806
655.9596000000001
478.4094
338.8032
242.4618
175.7436
150.99179999999998
251.7726
705.8322
1232.8848
1385.4294
1193.136
947.7851999999999
852.2352
888.1368
975.3995999999999
899.7384000000001
817.6955999999999
906.2958000000001
1186.8012
1478.8188
1573.0638000000001
1328.9184
1026.6906
824.385
658.6494
482.139
341.02919999999995
243.95940000000002
176.45520000000002
151.3176
252.2274
700.3386
1211.2182000000003
1360.1363999999999
1183.2276
949.1513999999999
852.7986
889.9836000000001
967.2642
891.3288
813.4284
908.4324000000001
1186.6835999999998
1472.5877999999998
1560.5868
1309.3074
1009.1346
812.2722
651.255
476.4024
338.3406
243.13680000000002
176.0958
151.416
251.4702
695.028
1198.5714
1339.7226
1164.966
944.6844
856.1063999999999
890.3934000000002
964.1442
886.7586
813.9936000000001
903.2202
1167.1776
1438.281
1525.7045999999998
1281.0942000000002
988.7951999999999
799.2528000000001
642.3288
472.0944
333.9732
240.4998
174.105
145.8024
226.4148
609.3653999999999
1036.1694
1161.1812
1041.8838
884.2386000000001
859.1778
902.937
951.5964000000001
877.2342
829.6812
1011.0768
1379.2566000000002
1611.4782000000002
1605.1398000000002
1293.1608
988.5534
809.5685999999998
662.0772
584.6561999999999
473.2674
330.62640000000005
238.2792
169.8942
148.3656
204.27659999999997
341.2218
521.3862
674.5704
913.275
935.2752
871.5504
828.7776
932.862
987.9306
1083.7398
1174.2942
1208.1527999999998
1110.8202
898.1447999999999
694.1718000000001
592.7231999999999
580.4064000000001
536.9675999999998
470.58959999999996
363.4266
276.465
190.026
141.3354
128.9754
184.55459999999997
318.6876
524.1102
636.2651999999999
670.6518000000001
571.593
568.8642
677.7137999999999
809.175
908.3166
1086.5046
1214.8883999999998
1130.655
996.6822000000002
867.8646
695.3106
531.1038000000001
375.17940000000004
280.956
199.44480000000001
158.9832
136.6884
246.00600000000003
704.6262
1227.5754
1359.6773999999998
1158.7541999999999
917.91
823.977
868.3122
959.3676
884.811
802.3806
898.1178000000001
1188.4056
1488.5946000000001
1582.0986
1340.5194
1029.0282
824.5806
655.9596000000001
478.4094
338.8032
242.4618
175.7436
150.99179999999998
251.7726
705.8322
1232.8848
1385.4294
1193.136
947.7851999999999
852.2352
888.1368
975.3995999999999
899.7384000000001
817.6955999999999
906.2958000000001
1186.8012
1478.8188
1573.0638000000001
1328.9184
1026.6906
824.385
658.6494
482.139
341.02919999999995
243.95940000000002
176.45520000000002
151.3176
252.2274
700.3386
1211.2182000000003
1360.1363999999999
1183.2276
949.1513999999999
852.7986
889.9836000000001
967.2642
891.3288
813.4284
908.4324000000001
1186.6835999999998
1472.5877999999998
1560.5868
1309.3074
1009.1346
812.2722
651.255
476.4024
338.3406
243.13680000000002
176.0958
151.416
251.4702
695.028
1198.5714
1339.7226
1164.966
944.6844
856.1063999999999
890.3934000000002
964.1442
886.7586
813.9936000000001
903.2202
1167.1776
1438.281
1525.7045999999998
1281.0942000000002
988.7951999999999
799.2528000000001
642.3288
472.0944
333.9732
240.4998
174.105
145.8024
226.4148
609.3653999999999
1036.1694
1161.1812
1041.8838
884.2386000000001
859.1778
902.937
951.5964000000001
877.2342
829.6812
1011.0768
1379.2566000000002
1611.4782000000002
1605.1398000000002
1293.1608
988.5534
809.5685999999998
662.0772
584.6561999999999
473.2674
330.62640000000005
238.2792
169.8942
148.3656
204.27659999999997
341.2218
521.3862
674.5704
913.275
935.2752
871.5504
828.7776
932.862
987.9306
1083.7398
1174.2942
1208.1527999999998
1110.8202
898.1447999999999
694.1718000000001
592.7231999999999
580.4064000000001
536.9675999999998
470.58959999999996
363.4266
276.465
190.026
141.3354
128.9754
184.55459999999997
318.6876
524.1102
636.2651999999999
670.6518000000001
571.593
568.8642
677.7137999999999
809.175
908.3166
1086.5046
1214.8883999999998
1130.655
996.6822000000002
867.8646
695.3106
531.1038000000001
375.17940000000004
280.956
199.44480000000001
158.9832
136.6884
246.00600000000003
704.6262
1227.5754
1359.6773999999998
1158.7541999999999
917.91
823.977
868.3122
959.3676
884.811
802.3806
898.1178000000001
1188.4056
1488.5946000000001
1582.0986
1340.5194
1029.0282
824.5806
655.9596000000001
478.4094
338.8032
242.4618
175.7436
150.99179999999998
251.7726
705.8322
1232.8848
1385.4294
1193.136
947.7851999999999
852.2352
888.1368
975.3995999999999
899.7384000000001
817.6955999999999
906.2958000000001
1186.8012
1478.8188
1573.0638000000001
1328.9184
1026.6906
824.385
658.6494
482.139
341.02919999999995
243.95940000000002
176.45520000000002
151.3176
252.2274
700.3386
1211.2182000000003
1360.1363999999999
1183.2276
949.1513999999999
852.7986
889.9836000000001
967.2642
891.3288
813.4284
908.4324000000001
1186.6835999999998
1472.5877999999998
1560.5868
1309.3074
1009.1346
812.2722
651.255
476.4024
338.3406
243.13680000000002
176.0958
151.416
251.4702
695.028
1198.5714
1339.7226
1164.966
944.6844
856.1063999999999
890.3934000000002
964.1442
886.7586
813.9936000000001
903.2202
1167.1776
1438.281
1525.7045999999998
1281.0942000000002
988.7951999999999
799.2528000000001
642.3288
472.0944
333.9732
240.4998
174.105
145.8024
226.4148
609.3653999999999
1036.1694
1161.1812
1041.8838
884.2386000000001
859.1778
902.937
951.5964000000001
877.2342
829.6812
1011.0768
1379.2566000000002
1611.4782000000002
1605.1398000000002
1293.1608
988.5534
809.5685999999998
662.0772
584.6561999999999
473.2674
330.62640000000005
238.2792
169.8942
148.3656
204.27659999999997
341.2218
521.3862
674.5704
913.275
935.2752
871.5504
828.7776
932.862
987.9306
1083.7398
1174.2942
1208.1527999999998
1110.8202
898.1447999999999
694.1718000000001
592.7231999999999
580.4064000000001
536.9675999999998
470.58959999999996
363.4266
276.465
190.026
141.3354
128.9754
184.55459999999997
318.6876
524.1102
636.2651999999999
670.6518000000001
571.593
568.8642
677.7137999999999
809.175
908.3166
1086.5046
1214.8883999999998
1130.655
996.6822000000002
867.8646
695.3106
531.1038000000001
375.17940000000004
280.956
199.44480000000001
158.9832
136.6884
246.00600000000003
704.6262
1227.5754
1359.6773999999998
1158.7541999999999
917.91
823.977
868.3122
959.3676
884.811
802.3806
898.1178000000001
1188.4056
1488.5946000000001
1582.0986
1340.5194
1029.0282
824.5806
655.9596000000001
478.4094
338.8032
242.4618
175.7436
150.99179999999998
251.7726
705.8322
1232.8848
1385.4294
1193.136
947.7851999999999
852.2352
888.1368
975.3995999999999
899.7384000000001
817.6955999999999
906.2958000000001
1186.8012
1478.8188
1573.0638000000001
1328.9184
1026.6906
824.385
658.6494
482.139
341.02919999999995
243.95940000000002
176.45520000000002
151.3176
252.2274
700.3386
1211.2182000000003
1360.1363999999999
1183.2276
949.1513999999999
852.7986
889.9836000000001
967.2642
891.3288
813.4284
908.4324000000001
1186.6835999999998
1472.5877999999998
1560.5868
1309.3074
1009.1346
812.2722
651.255
476.4024
338.3406
243.13680000000002
176.0958
151.416
251.4702
695.028
1198.5714
1339.7226
1164.966
944.6844
856.1063999999999
890.3934000000002
964.1442
886.7586
813.9936000000001
903.2202
1167.1776
1438.281
1525.7045999999998
1281.0942000000002
988.7951999999999
799.2528000000001
642.3288
472.0944
333.9732
240.4998
174.105
145.8024
226.4148
609.3653999999999
1036.1694
1161.1812
1041.8838
884.2386000000001
859.1778
902.937
951.5964000000001
877.2342
829.6812
1011.0768
1379.2566000000002
1611.4782000000002
1605.1398000000002
1293.1608
988.5534
809.5685999999998
662.0772
584.6561999999999
473.2674
330.62640000000005
238.2792
169.8942
148.3656
204.27659999999997
341.2218
521.3862
674.5704
913.275
935.2752
871.5504
828.7776
932.862
987.9306
1083.7398
1174.2942
1208.1527999999998
1110.8202
898.1447999999999
694.1718000000001
592.7231999999999
580.4064000000001
536.9675999999998
470.58959999999996
363.4266
276.465
190.026
141.3354
128.9754
184.55459999999997
318.6876
524.1102
636.2651999999999
670.6518000000001
571.593
568.8642
677.7137999999999
809.175
908.3166
1086.5046
1214.8883999999998
1130.655
996.6822000000002
867.8646
695.3106
531.1038000000001
375.17940000000004
280.956
199.44480000000001
158.9832
136.6884
246.00600000000003
704.6262
1227.5754
1359.6773999999998
1158.7541999999999
917.91
823.977
868.3122
959.3676
884.811
802.3806
898.1178000000001
1188.4056
1488.5946000000001
1582.0986
1340.5194
1029.0282
824.5806
655.9596000000001
478.4094
338.8032
242.4618
175.7436
150.99179999999998
251.7726
705.8322
1232.8848
1385.4294
1193.136
947.7851999999999
852.2352
888.1368
975.3995999999999
899.7384000000001
817.6955999999999
906.2958000000001
1186.8012
1478.8188
1573.0638000000001
1328.9184
1026.6906
824.385
658.6494
482.139
341.02919999999995
243.95940000000002
176.45520000000002
151.3176
252.2274
700.3386
1211.2182000000003
1360.1363999999999
1183.2276
949.1513999999999
852.7986
889.9836000000001
967.2642
891.3288
813.4284
908.4324000000001
1186.6835999999998
1472.5877999999998
1560.5868
1309.3074
1009.1346
812.2722
651.255
476.4024
338.3406
243.13680000000002
176.0958
151.416
251.4702
695.028
1198.5714
1339.7226
1164.966
944.6844
856.1063999999999
890.3934000000002
964.1442
886.7586
813.9936000000001
903.2202
1167.1776
1438.281
1525.7045999999998
1281.0942000000002
988.7951999999999
799.2528000000001
642.3288
472.0944
333.9732
240.4998
174.105
145.8024
226.4148
609.3653999999999
1036.1694
1161.1812
1041.8838
884.2386000000001
859.1778
902.937
951.5964000000001
877.2342
829.6812
1011.0768
1379.2566000000002
1611.4782000000002
1605.1398000000002
1293.1608
988.5534
809.5685999999998
662.0772
584.6561999999999
473.2674
330.62640000000005
238.2792
169.8942
148.3656
204.27659999999997
341.2218
521.3862
674.5704
913.275
935.2752
871.5504
828.7776
932.862
987.9306
1083.7398
1174.2942
1208.1527999999998
1110.8202
898.1447999999999
694.1718000000001
592.7231999999999
580.4064000000001
536.9675999999998
470.58959999999996
363.4266
276.465
190.026
141.3354
128.9754
184.55459999999997
318.6876
524.1102
636.2651999999999
670.6518000000001
571.593
568.8642
677.7137999999999
809.175
908.3166
1086.5046
1214.8883999999998
1130.655
996.6822000000002
867.8646
695.3106
531.1038000000001
375.17940000000004
280.956
199.44480000000001
158.9832
136.6884
246.00600000000003
704.6262
1227.5754
1359.6773999999998
1158.7541999999999
917.91
823.977
868.3122
959.3676
884.811
802.3806
898.1178000000001
1188.4056
1488.5946000000001
1582.0986
1340.5194
1029.0282
824.5806
655.9596000000001
478.4094
338.8032
242.4618
175.7436
150.99179999999998
251.7726
705.8322
1232.8848
1385.4294
1193.136
947.7851999999999
852.2352
888.1368
975.3995999999999
899.7384000000001
817.6955999999999
906.2958000000001
1186.8012
1478.8188
1573.0638000000001
1328.9184
1026.6906
824.385
658.6494
482.139
341.02919999999995
243.95940000000002
176.45520000000002
151.3176
252.2274
700.3386
1211.2182000000003
1360.1363999999999
1183.2276
949.1513999999999
852.7986
889.9836000000001
967.2642
891.3288
813.4284
908.4324000000001
1186.6835999999998
1472.5877999999998
1560.5868
1309.3074
1009.1346
812.2722
651.255
476.4024
338.3406
243.13680000000002
176.0958
151.416
251.4702
695.028
1198.5714
1339.7226
1164.966
944.6844
856.1063999999999
890.3934000000002
964.1442
886.7586
813.9936000000001
903.2202
1167.1776
1438.281
1525.7045999999998
1281.0942000000002
988.7951999999999
799.2528000000001
642.3288
472.0944
333.9732
240.4998
174.105
145.8024
226.4148
609.3653999999999
1036.1694
1161.1812
1041.8838
884.2386000000001
859.1778
902.937
951.5964000000001
877.2342
829.6812
1011.0768
1379.2566000000002
1611.4782000000002
1605.1398000000002
1293.1608
988.5534
809.5685999999998
662.0772
584.6561999999999
473.2674
330.62640000000005
238.2792
169.8942
148.3656
204.27659999999997
341.2218
521.3862
674.5704
913.275
935.2752
871.5504
828.7776
932.862
987.9306
1083.7398
1174.2942
1208.1527999999998
1110.8202
898.1447999999999
694.1718000000001
592.7231999999999
580.4064000000001
536.9675999999998
470.58959999999996
363.4266
276.465
190.026
141.3354
128.9754
184.55459999999997
318.6876
524.1102
636.2651999999999
670.6518000000001
571.593
568.8642
677.7137999999999
809.175
908.3166
1086.5046
1214.8883999999998
1130.655
996.6822000000002
867.8646
695.3106
531.1038000000001
375.17940000000004
280.956
199.44480000000001
158.9832
136.6884
246.00600000000003
704.6262
1227.5754
1359.6773999999998
1158.7541999999999
917.91
823.977
868.3122
959.3676
884.811
802.3806
898.1178000000001
1188.4056
1488.5946000000001
1582.0986
1340.5194
1029.0282
824.5806
655.9596000000001
478.4094
338.8032
242.4618
175.7436
150.99179999999998
251.7726
705.8322
1232.8848
1385.4294
1193.136
947.7851999999999
852.2352
888.1368
975.3995999999999
899.7384000000001
817.6955999999999
906.2958000000001
1186.8012
1478.8188
1573.0638000000001
1328.9184
1026.6906
824.385
658.6494
482.139
341.02919999999995
243.95940000000002
176.45520000000002
151.3176
252.2274
700.3386
1211.2182000000003
1360.1363999999999
1183.2276
949.1513999999999
852.7986
889.9836000000001
967.2642
891.3288
813.4284
908.4324000000001
1186.6835999999998
1472.5877999999998
1560.5868
1309.3074
1009.1346
812.2722
651.255
476.4024
338.3406
243.13680000000002
176.0958
151.416
251.4702
695.028
1198.5714
1339.7226
1164.966
944.6844
856.1063999999999
890.3934000000002
964.1442
886.7586
813.9936000000001
903.2202
1167.1776
1438.281
1525.7045999999998
1281.0942000000002
988.7951999999999
799.2528000000001
642.3288
472.0944
333.9732
240.4998
174.105
145.8024
226.4148
609.3653999999999
1036.1694
1161.1812
1041.8838
884.2386000000001
859.1778
902.937
951.5964000000001
877.2342
829.6812
1011.0768
1379.2566000000002
1611.4782000000002
1605.1398000000002
1293.1608
988.5534
809.5685999999998
662.0772
584.6561999999999
473.2674
330.62640000000005
238.2792
169.8942
148.3656
204.27659999999997
341.2218
521.3862
674.5704
913.275
935.2752
871.5504
828.7776
932.862
987.9306
1083.7398
1174.2942
1208.1527999999998
1110.8202
898.1447999999999
694.1718000000001
592.7231999999999
580.4064000000001
536.9675999999998
470.58959999999996
363.4266
276.465
190.026
141.3354
128.9754
184.55459999999997
318.6876
524.1102
636.2651999999999
670.6518000000001
571.593
568.8642
677.7137999999999
809.175
908.3166
1086.5046
1214.8883999999998
1130.655
996.6822000000002
867.8646
695.3106
531.1038000000001
375.17940000000004
280.956
199.44480000000001
158.9832
136.6884
246.00600000000003
704.6262
1227.5754
1359.6773999999998
1158.7541999999999
917.91
823.977
868.3122
959.3676
884.811
802.3806
898.1178000000001
1188.4056
1488.5946000000001
1582.0986
1340.5194
1029.0282
824.5806
655.9596000000001
478.4094
338.8032
242.4618
175.7436
150.99179999999998
251.7726
705.8322
1232.8848
1385.4294
1193.136
947.7851999999999
852.2352
888.1368
975.3995999999999
899.7384000000001
817.6955999999999
906.2958000000001
1186.8012
1478.8188
1573.0638000000001
1328.9184
1026.6906
824.385
658.6494
482.139
341.02919999999995
243.95940000000002
176.45520000000002
151.3176
252.2274
700.3386
1211.2182000000003
1360.1363999999999
1183.2276
949.1513999999999
852.7986
889.9836000000001
967.2642
891.3288
813.4284
908.4324000000001
1186.6835999999998
1472.5877999999998
1560.5868
1309.3074
1009.1346
812.2722
651.255
476.4024
338.3406
243.13680000000002
176.0958
151.416
251.4702
695.028
1198.5714
1339.7226
1164.966
944.6844
856.1063999999999
890.3934000000002
964.1442
886.7586
813.9936000000001
903.2202
1167.1776
1438.281
1525.7045999999998
1281.0942000000002
988.7951999999999
799.2528000000001
642.3288
472.0944
333.9732
240.4998
174.105
145.8024
226.4148
609.3653999999999
1036.1694
1161.1812
1041.8838
884.2386000000001
859.1778
902.937
951.5964000000001
877.2342
829.6812
1011.0768
1379.2566000000002
1611.4782000000002
1605.1398000000002
1293.1608
988.5534
809.5685999999998
662.0772
584.6561999999999
473.2674
330.62640000000005
238.2792
169.8942
148.3656
204.27659999999997
341.2218
521.3862
674.5704
913.275
935.2752
871.5504
828.7776
932.862
987.9306
1083.7398
1174.2942
1208.1527999999998
1110.8202
898.1447999999999
694.1718000000001
592.7231999999999
580.4064000000001
536.9675999999998
470.58959999999996
363.4266
276.465
190.026
141.3354
128.9754
184.55459999999997
318.6876
524.1102
636.2651999999999
670.6518000000001
571.593
568.8642
677.7137999999999
809.175
908.3166
1086.5046
1214.8883999999998
1130.655
996.6822000000002
867.8646
695.3106
531.1038000000001
375.17940000000004
280.956
199.44480000000001
158.9832
136.6884
246.00600000000003
704.6262
1227.5754
1359.6773999999998
1158.7541999999999
917.91
823.977
868.3122
959.3676
884.811
802.3806
898.1178000000001
1188.4056
1488.5946000000001
1582.0986
1340.5194
1029.0282
824.5806
655.9596000000001
478.4094
338.8032
242.4618
175.7436
150.99179999999998
251.7726
705.8322
1232.8848
1385.4294
1193.136
947.7851999999999
852.2352
888.1368
975.3995999999999
899.7384000000001
817.6955999999999
906.2958000000001
1186.8012
1478.8188
1573.0638000000001
1328.9184
1026.6906
824.385
658.6494
482.139
341.02919999999995
243.95940000000002
176.45520000000002
151.3176
252.2274
700.3386
1211.2182000000003
1360.1363999999999
1183.2276
949.1513999999999
852.7986
889.9836000000001
967.2642
891.3288
813.4284
908.4324000000001
1186.6835999999998
1472.5877999999998
1560.5868
1309.3074
1009.1346
812.2722
651.255
476.4024
338.3406
243.13680000000002
176.0958
151.416
251.4702
695.028
1198.5714
1339.7226
1164.966
944.6844
856.1063999999999
890.3934000000002
964.1442
886.7586
813.9936000000001
903.2202
1167.1776
1438.281
1525.7045999999998
1281.0942000000002
988.7951999999999
799.2528000000001
642.3288
472.0944
333.9732
240.4998
174.105
145.8024
226.4148
609.3653999999999
1036.1694
1161.1812
1041.8838
884.2386000000001
859.1778
902.937
951.5964000000001
877.2342
829.6812
1011.0768
1379.2566000000002
1611.4782000000002
1605.1398000000002
1293.1608
988.5534
809.5685999999998
662.0772
584.6561999999999
473.2674
330.62640000000005
238.2792
169.8942
148.3656
204.27659999999997
341.2218
521.3862
674.5704
913.275
935.2752
871.5504
828.7776
932.862
987.9306
1083.7398
1174.2942
1208.1527999999998
1110.8202
898.1447999999999
694.1718000000001
592.7231999999999
580.4064000000001
536.9675999999998
470.58959999999996
363.4266
276.465
190.026
141.3354
128.9754
184.55459999999997
318.6876
524.1102
636.2651999999999
670.6518000000001
571.593
568.8642
677.7137999999999
809.175
908.3166
1086.5046
1214.8883999999998
1130.655
996.6822000000002
867.8646
695.3106
531.1038000000001
375.17940000000004
280.956
199.44480000000001
158.9832
136.6884
246.00600000000003
704.6262
1227.5754
1359.6773999999998
1158.7541999999999
917.91
823.977
868.3122
959.3676
884.811
802.3806
898.1178000000001
1188.4056
1488.5946000000001
1582.0986
1340.5194
1029.0282
824.5806
655.9596000000001
478.4094
338.8032
242.4618
175.7436
150.99179999999998
251.7726
705.8322
1232.8848
1385.4294
1193.136
947.7851999999999
852.2352
888.1368
975.3995999999999
899.7384000000001
817.6955999999999
906.2958000000001
1186.8012
1478.8188
1573.0638000000001
1328.9184
1026.6906
824.385
658.6494
482.139
341.02919999999995
243.95940000000002
176.45520000000002
151.3176
252.2274
700.3386
1211.2182000000003
1360.1363999999999
1183.2276
949.1513999999999
852.7986
889.9836000000001
967.2642
891.3288
813.4284
908.4324000000001
1186.6835999999998
1472.5877999999998
1560.5868
1309.3074
1009.1346
812.2722
651.255
476.4024
338.3406
243.13680000000002
176.0958
151.416
251.4702
695.028
1198.5714
1339.7226
1164.966
944.6844
856.1063999999999
890.3934000000002
964.1442
886.7586
813.9936000000001
903.2202
1167.1776
1438.281
1525.7045999999998
1281.0942000000002
988.7951999999999
799.2528000000001
642.3288
472.0944
333.9732
240.4998
174.105
145.8024
226.4148
609.3653999999999
1036.1694
1161.1812
1041.8838
884.2386000000001
859.1778
902.937
951.5964000000001
877.2342
829.6812
1011.0768
1379.2566000000002
1611.4782000000002
1605.1398000000002
1293.1608
988.5534
809.5685999999998
662.0772
584.6561999999999
473.2674
330.62640000000005
238.2792
169.8942
148.3656
204.27659999999997
341.2218
521.3862
674.5704
913.275
935.2752
871.5504
828.7776
932.862
987.9306
1083.7398
1174.2942
1208.1527999999998
1110.8202
898.1447999999999
694.1718000000001
592.7231999999999
580.4064000000001
536.9675999999998
470.58959999999996
363.4266
276.465
190.026
141.3354
128.9754
184.55459999999997
318.6876
524.1102
636.2651999999999
670.6518000000001
571.593
568.8642
677.7137999999999
809.175
908.3166
1086.5046
1214.8883999999998
1130.655
996.6822000000002
867.8646
695.3106
531.1038000000001
375.17940000000004
280.956
199.44480000000001
158.9832
136.6884
246.00600000000003
704.6262
1227.5754
1359.6773999999998
1158.7541999999999
917.91
823.977
868.3122
959.3676
884.811
802.3806
898.1178000000001
1188.4056
1488.5946000000001
1582.0986
1340.5194
1029.0282
824.5806
655.9596000000001
478.4094
338.8032
242.4618
175.7436
150.99179999999998
251.7726
705.8322
1232.8848
1385.4294
1193.136
947.7851999999999
852.2352
888.1368
975.3995999999999
899.7384000000001
817.6955999999999
906.2958000000001
1186.8012
1478.8188
1573.0638000000001
1328.9184
1026.6906
824.385
658.6494
482.139
341.02919999999995
243.95940000000002
176.45520000000002
151.3176
252.2274
700.3386
1211.2182000000003
1360.1363999999999
1183.2276
949.1513999999999
852.7986
889.9836000000001
967.2642
891.3288
813.4284
908.4324000000001
1186.6835999999998
1472.5877999999998
1560.5868
1309.3074
1009.1346
812.2722
651.255
476.4024
338.3406
243.13680000000002
176.0958
151.416
251.4702
695.028
1198.5714
1339.7226
1164.966
944.6844
856.1063999999999
890.3934000000002
964.1442
886.7586
813.9936000000001
903.2202
1167.1776
1438.281
1525.7045999999998
1281.0942000000002
988.7951999999999
799.2528000000001
642.3288
472.0944
333.9732
240.4998
174.105
145.8024
226.4148
609.3653999999999
1036.1694
1161.1812
1041.8838
884.2386000000001
859.1778
902.937
951.5964000000001
877.2342
829.6812
1011.0768
1379.2566000000002
1611.4782000000002
1605.1398000000002
1293.1608
988.5534
809.5685999999998
662.0772
584.6561999999999
473.2674
330.62640000000005
238.2792
169.8942
148.3656
204.27659999999997
341.2218
521.3862
674.5704
913.275
935.2752
871.5504
828.7776
932.862
987.9306
1083.7398
1174.2942
1208.1527999999998
1110.8202
898.1447999999999
694.1718000000001
592.7231999999999
580.4064000000001
536.9675999999998
470.58959999999996
363.4266
276.465
190.026
141.3354
128.9754
184.55459999999997
318.6876
524.1102
636.2651999999999
670.6518000000001
571.593
568.8642
677.7137999999999
809.175
908.3166
1086.5046
1214.8883999999998
1130.655
996.6822000000002
867.8646
695.3106
531.1038000000001
375.17940000000004
280.956
199.44480000000001
158.9832
136.6884
246.00600000000003
704.6262
1227.5754
1359.6773999999998
1158.7541999999999
917.91
823.977
868.3122
959.3676
884.811
802.3806
898.1178000000001
1188.4056
1488.5946000000001
1582.0986
1340.5194
1029.0282
824.5806
655.9596000000001
478.4094
338.8032
242.4618
175.7436
150.99179999999998
251.7726
705.8322
1232.8848
1385.4294
1193.136
947.7851999999999
852.2352
888.1368
975.3995999999999
899.7384000000001
817.6955999999999
906.2958000000001
1186.8012
1478.8188
1573.0638000000001
1328.9184
1026.6906
824.385
658.6494
482.139
341.02919999999995
243.95940000000002
176.45520000000002
151.3176
252.2274
700.3386
1211.2182000000003
1360.1363999999999
1183.2276
949.1513999999999
852.7986
889.9836000000001
967.2642
891.3288
813.4284
908.4324000000001
1186.6835999999998
1472.5877999999998
1560.5868
1309.3074
1009.1346
812.2722
651.255
476.4024
338.3406
243.13680000000002
176.0958
151.416
251.4702
695.028
1198.5714
1339.7226
1164.966
944.6844
856.1063999999999
890.3934000000002
964.1442
886.7586
813.9936000000001
903.2202
1167.1776
1438.281
1525.7045999999998
1281.0942000000002
988.7951999999999
799.2528000000001
642.3288
472.0944
333.9732
240.4998
174.105
145.8024
226.4148
609.3653999999999
1036.1694
1161.1812
1041.8838
884.2386000000001
859.1778
902.937
951.5964000000001
877.2342
829.6812
1011.0768
1379.2566000000002
1611.4782000000002
1605.1398000000002
1293.1608
988.5534
809.5685999999998
662.0772
584.6561999999999
473.2674
330.62640000000005
238.2792
169.8942
148.3656
204.27659999999997
341.2218
521.3862
674.5704
913.275
935.2752
871.5504
828.7776
932.862
987.9306
1083.7398
1174.2942
1208.1527999999998
1110.8202
898.1447999999999
694.1718000000001
592.7231999999999
580.4064000000001
536.9675999999998
470.58959999999996
363.4266
276.465
190.026
141.3354
128.9754
184.55459999999997
318.6876
524.1102
636.2651999999999
670.6518000000001
571.593
568.8642
677.7137999999999
809.175
908.3166
1086.5046
1214.8883999999998
1130.655
996.6822000000002
867.8646
695.3106
531.1038000000001
375.17940000000004
280.956
199.44480000000001
158.9832
136.6884
246.00600000000003
704.6262
1227.5754
1359.6773999999998
1158.7541999999999
917.91
823.977
868.3122
959.3676
884.811
802.3806
898.1178000000001
1188.4056
1488.5946000000001
1582.0986
1340.5194
1029.0282
824.5806
655.9596000000001
478.4094
338.8032
242.4618
175.7436
150.99179999999998
251.7726
705.8322
1232.8848
1385.4294
1193.136
947.7851999999999
852.2352
888.1368
975.3995999999999
899.7384000000001
817.6955999999999
906.2958000000001
1186.8012
1478.8188
1573.0638000000001
1328.9184
1026.6906
824.385
658.6494
482.139
341.02919999999995
243.95940000000002
176.45520000000002
151.3176
252.2274
700.3386
1211.2182000000003
1360.1363999999999
1183.2276
949.1513999999999
852.7986
889.9836000000001
967.2642
891.3288
813.4284
908.4324000000001
1186.6835999999998
1472.5877999999998
1560.5868
1309.3074
1009.1346
812.2722
651.255
476.4024
338.3406
243.13680000000002
176.0958
151.416
251.4702
695.028
1198.5714
1339.7226
1164.966
944.6844
856.1063999999999
890.3934000000002
964.1442
886.7586
813.9936000000001
903.2202
1167.1776
1438.281
1525.7045999999998
1281.0942000000002
988.7951999999999
799.2528000000001
642.3288
472.0944
333.9732
240.4998
174.105
145.8024
226.4148
609.3653999999999
1036.1694
1161.1812
1041.8838
884.2386000000001
859.1778
902.937
951.5964000000001
877.2342
829.6812
1011.0768
1379.2566000000002
1611.4782000000002
1605.1398000000002
1293.1608
988.5534
809.5685999999998
662.0772
584.6561999999999
473.2674
330.62640000000005
238.2792
169.8942
148.3656
204.27659999999997
341.2218
521.3862
674.5704
913.275
935.2752
871.5504
828.7776
932.862
987.9306
1083.7398
1174.2942
1208.1527999999998
1110.8202
898.1447999999999
694.1718000000001
592.7231999999999
580.4064000000001
536.9675999999998
470.58959999999996
363.4266
276.465
190.026
141.3354
128.9754
184.55459999999997
318.6876
524.1102
636.2651999999999
670.6518000000001
571.593
568.8642
677.7137999999999
809.175
908.3166
1086.5046
1214.8883999999998
1130.655
996.6822000000002
867.8646
695.3106
531.1038000000001
375.17940000000004
280.956
199.44480000000001
158.9832
136.6884
246.00600000000003
704.6262
1227.5754
1359.6773999999998
1158.7541999999999
917.91
823.977
868.3122
959.3676
884.811
802.3806
898.1178000000001
1188.4056
1488.5946000000001
1582.0986
1340.5194
1029.0282
824.5806
655.9596000000001
478.4094
338.8032
242.4618
175.7436
150.99179999999998
251.7726
705.8322
1232.8848
1385.4294
1193.136
947.7851999999999
852.2352
888.1368
975.3995999999999
899.7384000000001
817.6955999999999
906.2958000000001
1186.8012
1478.8188
1573.0638000000001
1328.9184
1026.6906
824.385
658.6494
482.139
341.02919999999995
243.95940000000002
176.45520000000002
151.3176
252.2274
700.3386
1211.2182000000003
1360.1363999999999
1183.2276
949.1513999999999
852.7986
889.9836000000001
967.2642
891.3288
813.4284
908.4324000000001
1186.6835999999998
1472.5877999999998
1560.5868
1309.3074
1009.1346
812.2722
651.255
476.4024
338.3406
243.13680000000002
176.0958
151.416
251.4702
695.028
1198.5714
1339.7226
1164.966
944.6844
856.1063999999999
890.3934000000002
964.1442
886.7586
813.9936000000001
903.2202
1167.1776
1438.281
1525.7045999999998
1281.0942000000002
988.7951999999999
799.2528000000001
642.3288
472.0944
333.9732
240.4998
174.105
145.8024
226.4148
609.3653999999999
1036.1694
1161.1812
1041.8838
884.2386000000001
859.1778
902.937
951.5964000000001
877.2342
829.6812
1011.0768
1379.2566000000002
1611.4782000000002
1605.1398000000002
1293.1608
988.5534
809.5685999999998
662.0772
584.6561999999999
473.2674
330.62640000000005
238.2792
169.8942
148.3656
204.27659999999997
341.2218
521.3862
674.5704
913.275
935.2752
871.5504
828.7776
932.862
987.9306
1083.7398
1174.2942
1208.1527999999998
1110.8202
898.1447999999999
694.1718000000001
592.7231999999999
580.4064000000001
536.9675999999998
470.58959999999996
363.4266
276.465
190.026
141.3354
128.9754
184.55459999999997
318.6876
524.1102
636.2651999999999
670.6518000000001
571.593
568.8642
677.7137999999999
809.175
908.3166
1086.5046
1214.8883999999998
1130.655
996.6822000000002
867.8646
695.3106
531.1038000000001
375.17940000000004
280.956
199.44480000000001
158.9832
136.6884
246.00600000000003
704.6262
1227.5754
1359.6773999999998
1158.7541999999999
917.91
823.977
868.3122
959.3676
884.811
802.3806
898.1178000000001
1188.4056
1488.5946000000001
1582.0986
1340.5194
1029.0282
824.5806
655.9596000000001
478.4094
338.8032
242.4618
175.7436
150.99179999999998
251.7726
705.8322
1232.8848
1385.4294
1193.136
947.7851999999999
852.2352
888.1368
975.3995999999999
899.7384000000001
817.6955999999999
906.2958000000001
1186.8012
1478.8188
1573.0638000000001
1328.9184
1026.6906
824.385
658.6494
482.139
341.02919999999995
243.95940000000002
176.45520000000002
151.3176
252.2274
700.3386
1211.2182000000003
1360.1363999999999
1183.2276
949.1513999999999
852.7986
889.9836000000001
967.2642
891.3288
813.4284
908.4324000000001
1186.6835999999998
1472.5877999999998
1560.5868
1309.3074
1009.1346
812.2722
651.255
476.4024
338.3406
243.13680000000002
176.0958
151.416
251.4702
695.028
1198.5714
1339.7226
1164.966
944.6844
856.1063999999999
890.3934000000002
964.1442
886.7586
813.9936000000001
903.2202
1167.1776
1438.281
1525.7045999999998
1281.0942000000002
988.7951999999999
799.2528000000001
642.3288
472.0944
333.9732
240.4998
174.105
145.8024
226.4148
609.3653999999999
1036.1694
1161.1812
1041.8838
884.2386000000001
859.1778
902.937
951.5964000000001
877.2342
829.6812
1011.0768
1379.2566000000002
1611.4782000000002
1605.1398000000002
1293.1608
988.5534
809.5685999999998
662.0772
584.6561999999999
473.2674
330.62640000000005
238.2792
169.8942
148.3656
204.27659999999997
341.2218
521.3862
674.5704
913.275
935.2752
871.5504
828.7776
932.862
987.9306
1083.7398
1174.2942
1208.1527999999998
1110.8202
898.1447999999999
694.1718000000001
592.7231999999999
580.4064000000001
536.9675999999998
470.58959999999996
363.4266
276.465
190.026
141.3354
128.9754
184.55459999999997
318.6876
524.1102
636.2651999999999
670.6518000000001
571.593
568.8642
677.7137999999999
809.175
908.3166
1086.5046
1214.8883999999998
1130.655
996.6822000000002
867.8646
695.3106
531.1038000000001
375.17940000000004
280.956
199.44480000000001
158.9832
136.6884
246.00600000000003
704.6262
1227.5754
1359.6773999999998
1158.7541999999999
917.91
823.977
868.3122
959.3676
884.811
802.3806
898.1178000000001
1188.4056
1488.5946000000001
1582.0986
1340.5194
1029.0282
824.5806
655.9596000000001
478.4094
338.8032
242.4618
175.7436
150.99179999999998
251.7726
705.8322
1232.8848
1385.4294
1193.136
947.7851999999999
852.2352
888.1368
975.3995999999999
899.7384000000001
817.6955999999999
906.2958000000001
1186.8012
1478.8188
1573.0638000000001
1328.9184
1026.6906
824.385
658.6494
482.139
341.02919999999995
243.95940000000002
176.45520000000002
151.3176
252.2274
700.3386
1211.2182000000003
1360.1363999999999
1183.2276
949.1513999999999
852.7986
889.9836000000001
967.2642
891.3288
813.4284
908.4324000000001
1186.6835999999998
1472.5877999999998
1560.5868
1309.3074
1009.1346
812.2722
651.255
476.4024
338.3406
243.13680000000002
176.0958
151.416
251.4702
695.028
1198.5714
1339.7226
1164.966
944.6844
856.1063999999999
890.3934000000002
964.1442
886.7586
813.9936000000001
903.2202
1167.1776
1438.281
1525.7045999999998
1281.0942000000002
988.7951999999999
799.2528000000001
642.3288
472.0944
333.9732
240.4998
174.105
145.8024
226.4148
609.3653999999999
1036.1694
1161.1812
1041.8838
884.2386000000001
859.1778
902.937
951.5964000000001
877.2342
829.6812
1011.0768
1379.2566000000002
1611.4782000000002
1605.1398000000002
1293.1608
988.5534
809.5685999999998
662.0772
584.6561999999999
473.2674
330.62640000000005
238.2792
169.8942
148.3656
204.27659999999997
341.2218
521.3862
674.5704
913.275
935.2752
871.5504
828.7776
932.862
987.9306
1083.7398
1174.2942
1208.1527999999998
1110.8202
898.1447999999999
694.1718000000001
592.7231999999999
580.4064000000001
536.9675999999998
470.58959999999996
363.4266
276.465
190.026
141.3354
128.9754
184.55459999999997
318.6876
524.1102
636.2651999999999
670.6518000000001
571.593
568.8642
677.7137999999999
809.175
908.3166
1086.5046
1214.8883999999998
1130.655
996.6822000000002
867.8646
695.3106
531.1038000000001
375.17940000000004
280.956
199.44480000000001
158.9832
136.6884
246.00600000000003
704.6262
1227.5754
1359.6773999999998
1158.7541999999999
917.91
823.977
868.3122
959.3676
884.811
802.3806
898.1178000000001
1188.4056
1488.5946000000001
1582.0986
1340.5194
1029.0282
824.5806
655.9596000000001
478.4094
338.8032
242.4618
175.7436
150.99179999999998
251.7726
705.8322
1232.8848
1385.4294
1193.136
947.7851999999999
852.2352
888.1368
975.3995999999999
899.7384000000001
817.6955999999999
906.2958000000001
1186.8012
1478.8188
1573.0638000000001
1328.9184
1026.6906
824.385
658.6494
482.139
341.02919999999995
243.95940000000002
176.45520000000002
151.3176
252.2274
700.3386
1211.2182000000003
1360.1363999999999
1183.2276
949.1513999999999
852.7986
889.9836000000001
967.2642
891.3288
813.4284
908.4324000000001
1186.6835999999998
1472.5877999999998
1560.5868
1309.3074
1009.1346
812.2722
651.255
476.4024
338.3406
243.13680000000002
176.0958
151.416
251.4702
695.028
1198.5714
1339.7226
1164.966
944.6844
856.1063999999999
890.3934000000002
964.1442
886.7586
813.9936000000001
903.2202
1167.1776
1438.281
1525.7045999999998
1281.0942000000002
988.7951999999999
799.2528000000001
642.3288
472.0944
333.9732
240.4998
174.105
145.8024
226.4148
609.3653999999999
1036.1694
1161.1812
1041.8838
884.2386000000001
859.1778
902.937
951.5964000000001
877.2342
829.6812
1011.0768
1379.2566000000002
1611.4782000000002
1605.1398000000002
1293.1608
988.5534
809.5685999999998
662.0772
584.6561999999999
473.2674
330.62640000000005
238.2792
169.8942
148.3656
204.27659999999997
341.2218
521.3862
674.5704
913.275
935.2752
871.5504
828.7776
932.862
987.9306
1083.7398
1174.2942
1208.1527999999998
1110.8202
898.1447999999999
694.1718000000001
592.7231999999999
580.4064000000001
536.9675999999998
470.58959999999996
363.4266
276.465
190.026
141.3354
128.9754
184.55459999999997
318.6876
524.1102
636.2651999999999
670.6518000000001
571.593
568.8642
677.7137999999999
809.175
908.3166
1086.5046
1214.8883999999998
1130.655
996.6822000000002
867.8646
695.3106
531.1038000000001
375.23220000000003
280.9164
199.392
159.49620000000002
138.0486
251.6874
728.8032
1281.345
1434.3564
1239.963
995.2458
898.0704000000001
940.6121999999999
1038.2531999999999
970.5492
883.038
985.467
1293.63
1621.833
1729.3572000000001
1471.6524
1141.2798
913.8581999999999
729.6576
536.1978
380.7888
272.1834
197.4438
168.87959999999998
269.34959999999995
742.4892
1299.3612
1478.4714000000001
1284.3066000000001
1029.0822
923.6406
967.5491999999999
1064.1996000000001
994.4226
907.9853999999999
999.7092
1298.619
1619.7294
1721.892
1461.333
1136.544
912.6366
729.1271999999999
535.7135999999999
380.38980000000004
274.0632
197.48340000000002
168.11579999999998
267.09659999999997
735.3468
1283.8313999999998
1451.5194
1273.971
1034.3538
932.5422000000001
972.4602
1066.6193999999998
990.8123999999999
902.2697999999999
997.9008
1302.4728
1617.315
1719.294
1453.2978
1120.41
901.2354
723.0408
532.4088
377.829
271.2114
196.971
167.502
269.18519999999995
739.2456
1281.7127999999998
1446.2964
1267.6494
1033.4868000000001
934.7891999999999
971.307
1058.151
986.5913999999999
900.8112
997.0626
1288.626
1595.1882000000003
1689.2574000000002
1425.498
1101.8927999999999
890.4971999999999
716.43
528.672
377.4984
271.33320000000003
196.53240000000002
162.849
245.73539999999997
648.279
1111.0242
1252.7117999999998
1133.2913999999998
966.0335999999999
935.6777999999999
989.0904000000002
1050.8928
973.6637999999999
921.1374
1110.6348
1500.9264
1764.1991999999998
1762.8678
1431.0503999999999
1093.2636
894.615
734.4402
644.0238
524.313
366.88559999999995
265.2192
188.1306
165.18779999999998
221.06220000000002
365.8788
569.0472
736.5743999999999
993.3726000000001
1017.7158000000001
956.8428
919.0272
1036.086
1101.3185999999998
1201.0133999999998
1296.939
1335.4758
1231.4958
1003.4346
777.216
661.4232000000001
640.9488
590.8584000000001
519.708
400.6344
301.953
209.5746
155.97
142.9446
204.66060000000002
344.5398
573.5111999999999
701.2361999999999
740.5368000000001
631.2078
627.474
757.245
903.8892
1004.8530000000001
1188.6864
1308.6546
1215.7656000000002
1070.457
932.8134
750.2154
575.565
405.50759999999997
302.76840000000004
216.23520000000002
173.3112
148.26
258.2058
733.0788
1284.5328
1436.4732
1241.3154000000002
996.1110000000001
898.6206
940.9062000000001
1038.3876
970.6416
883.08
985.4753999999999
1293.63
1621.8372
1729.3572000000001
1471.6524
1141.2798
913.8581999999999
729.6576
536.1978
380.7888
272.1834
197.4438
168.87959999999998
269.34959999999995
742.4892
1299.3612
1478.4714000000001
1284.3066000000001
1029.0822
923.6406
967.5491999999999
1064.1996000000001
994.4226
907.9853999999999
999.7092
1298.619
1619.7294
1721.892
1461.333
1136.544
912.6366
729.1271999999999
535.7135999999999
380.38980000000004
274.0632
197.48340000000002
168.11579999999998
267.09659999999997
735.3468
1283.8313999999998
1451.5194
1273.971
1034.3538
932.5422000000001
972.4602
1066.6193999999998
990.8123999999999
902.2697999999999
997.9008
1302.4728
1617.315
1719.294
1453.2978
1120.41
901.2354
723.0408
532.4088
377.829
271.2114
196.971
167.502
269.18519999999995
739.2456
1281.7127999999998
1446.2964
1267.6494
1033.4868000000001
934.7891999999999
971.307
1058.151
986.5913999999999
900.8112
997.0626
1288.626
1595.1882000000003
1689.2574000000002
1425.498
1101.8927999999999
890.4971999999999
716.43
528.672
377.4984
271.33320000000003
196.53240000000002
162.849
245.73539999999997
648.279
1111.0242
1252.7117999999998
1133.2913999999998
966.0335999999999
935.6777999999999
989.0904000000002
1050.8928
973.6637999999999
921.1374
1110.6348
1500.9264
1764.1991999999998
1762.8678
1431.0503999999999
1093.2636
894.615
734.4402
644.0238
524.313
366.88559999999995
265.2192
188.1306
165.18779999999998
221.06220000000002
365.8788
569.0472
736.5743999999999
993.3726000000001
1017.7158000000001
956.8428
919.0272
1036.086
1101.3185999999998
1201.0133999999998
1296.939
1335.4758
1231.4958
1003.4346
777.216
661.4232000000001
640.9488
590.8584000000001
519.708
400.6344
301.953
209.5746
155.97
142.9446
204.66060000000002
344.5398
573.5111999999999
701.2361999999999
740.5368000000001
631.2078
627.474
757.245
903.8892
1004.8530000000001
1188.6864
1308.6546
1215.7656000000002
1070.457
932.8134
750.2154
575.565
405.50759999999997
302.76840000000004
216.23520000000002
173.3112
148.26
258.2058
733.0788
1284.5328
1436.4732
1241.3154000000002
996.1110000000001
898.6206
940.9062000000001
1038.3876
970.6416
883.08
985.4753999999999
1293.63
1621.8372
1729.3572000000001
1471.6524
1141.2798
913.8581999999999
729.6576
536.1978
380.7888
272.1834
197.4438
168.87959999999998
269.34959999999995
742.4892
1299.3612
1478.4714000000001
1284.3066000000001
1029.0822
923.6406
967.5491999999999
1064.1996000000001
994.4226
907.9853999999999
999.7092
1298.619
1619.7294
1721.892
1461.333
1136.544
912.6366
729.1271999999999
535.7135999999999
380.38980000000004
274.0632
197.48340000000002
168.11579999999998
267.09659999999997
735.3468
1283.8313999999998
1451.5194
1273.971
1034.3538
932.5422000000001
972.4602
1066.6193999999998
990.8123999999999
902.2697999999999
997.9008
1302.4728
1617.315
1719.294
1453.2978
1120.41
901.2354
723.0408
532.4088
377.829
271.2114
196.971
167.502
269.18519999999995
739.2456
1281.7127999999998
1446.2964
1267.6494
1033.4868000000001
934.7891999999999
971.307
1058.151
986.5913999999999
900.8112
997.0626
1288.626
1595.1882000000003
1689.2574000000002
1425.498
1101.8927999999999
890.4971999999999
716.43
528.672
377.4984
271.33320000000003
196.53240000000002
162.849
245.73539999999997
648.279
1111.0242
1252.7117999999998
1133.2913999999998
966.0335999999999
935.6777999999999
989.0904000000002
1050.8928
973.6637999999999
921.1374
1110.6348
1500.9264
1764.1991999999998
1762.8678
1431.0503999999999
1093.2636
894.615
734.4402
644.0238
524.313
366.88559999999995
265.2192
188.1306
165.18779999999998
221.06220000000002
365.8788
569.0472
736.5743999999999
993.3726000000001
1017.7158000000001
956.8428
919.0272
1036.086
1101.3185999999998
1201.0133999999998
1296.939
1335.4758
1231.4958
1003.4346
777.216
661.4232000000001
640.9488
590.8584000000001
519.708
400.6344
301.953
209.5746
155.97
142.9446
204.66060000000002
344.5398
573.5111999999999
701.2361999999999
740.5368000000001
631.2078
627.474
757.245
903.8892
1004.8530000000001
1188.6864
1308.6546
1215.7656000000002
1070.457
932.8134
750.2154
575.565
405.50759999999997
302.76840000000004
216.23520000000002
173.3112
148.26
258.2058
733.0788
1284.5328
1436.4732
1241.3154000000002
996.1110000000001
898.6206
940.9062000000001
1038.3876
970.6416
883.08
985.4753999999999
1293.63
1621.8372
1729.3572000000001
1471.6524
1141.2798
913.8581999999999
729.6576
536.1978
380.7888
272.1834
197.4438
168.87959999999998
269.34959999999995
742.4892
1299.3612
1478.4714000000001
1284.3066000000001
1029.0822
923.6406
967.5491999999999
1064.1996000000001
994.4226
907.9853999999999
999.7092
1298.619
1619.7294
1721.892
1461.333
1136.544
912.6366
729.1271999999999
535.7135999999999
380.38980000000004
274.0632
197.48340000000002
168.11579999999998
267.09659999999997
735.3468
1283.8313999999998
1451.5194
1273.971
1034.3538
932.5422000000001
972.4602
1066.6193999999998
990.8123999999999
902.2697999999999
997.9008
1302.4728
1617.315
1719.294
1453.2978
1120.41
901.2354
723.0408
532.4088
377.829
271.2114
196.971
167.502
269.18519999999995
739.2456
1281.7127999999998
1446.2964
1267.6494
1033.4868000000001
934.7891999999999
971.307
1058.151
986.5913999999999
900.8112
997.0626
1288.626
1595.1882000000003
1689.2574000000002
1425.498
1101.8927999999999
890.4971999999999
716.43
528.672
377.4984
271.33320000000003
196.53240000000002
162.849
245.73539999999997
648.279
1111.0242
1252.7117999999998
1133.2913999999998
966.0335999999999
935.6777999999999
989.0904000000002
1050.8928
973.6637999999999
921.1374
1110.6348
1500.9264
1764.1991999999998
1762.8678
1431.0503999999999
1093.2636
894.615
734.4402
644.0238
524.313
366.88559999999995
265.2192
188.1306
165.18779999999998
221.06220000000002
365.8788
569.0472
736.5743999999999
993.3726000000001
1017.7158000000001
956.8428
919.0272
1036.086
1101.3185999999998
1201.0133999999998
1296.939
1335.4758
1231.4958
1003.4346
777.216
661.4232000000001
640.9488
590.8584000000001
519.708
400.6344
301.953
209.5746
155.97
142.9446
204.66060000000002
344.5398
573.5111999999999
701.2361999999999
740.5368000000001
631.2078
627.474
757.245
903.8892
1004.8530000000001
1188.6864
1308.6546
1215.7656000000002
1070.457
932.8134
750.2154
575.565
405.50759999999997
302.76840000000004
216.23520000000002
173.3112
148.26
258.2058
733.0788
1284.5328
1436.4732
1241.3154000000002
996.1110000000001
898.6206
940.9062000000001
1038.3876
970.6416
883.08
985.4753999999999
1293.63
1621.8372
1729.3572000000001
1471.6524
1141.2798
913.8581999999999
729.6576
536.1978
380.7888
272.1834
197.4438
168.87959999999998
269.34959999999995
742.4892
1299.3612
1478.4714000000001
1284.3066000000001
1029.0822
923.6406
967.5491999999999
1064.1996000000001
994.4226
907.9853999999999
999.7092
1298.619
1619.7294
1721.892
1461.333
1136.544
912.6366
729.1271999999999
535.7135999999999
380.38980000000004
274.0632
197.48340000000002
168.11579999999998
267.09659999999997
735.3468
1283.8313999999998
1451.5194
1273.971
1034.3538
932.5422000000001
972.4602
1066.6193999999998
990.8123999999999
902.2697999999999
997.9008
1302.4728
1617.315
1719.294
1453.2978
1120.41
901.2354
723.0408
532.4088
377.829
271.2114
196.971
167.502
269.18519999999995
739.2456
1281.7127999999998
1446.2964
1267.6494
1033.4868000000001
934.7891999999999
971.307
1058.151
986.5913999999999
900.8112
997.0626
1288.626
1595.1882000000003
1689.2574000000002
1425.498
1101.8927999999999
890.4971999999999
716.43
528.672
377.4984
271.33320000000003
196.53240000000002
162.849
245.73539999999997
648.279
1111.0242
1252.7117999999998
1133.2913999999998
966.0335999999999
935.6777999999999
989.0904000000002
1050.8928
973.6637999999999
921.1374
1110.6348
1500.9264
1764.1991999999998
1762.8678
1431.0503999999999
1093.2636
894.615
734.4402
644.0238
524.313
366.88559999999995
265.2192
188.1306
165.18779999999998
221.06220000000002
365.8788
569.0472
736.5743999999999
993.3726000000001
1017.7158000000001
956.8428
919.0272
1036.086
1101.3185999999998
1201.0133999999998
1296.939
1335.4758
1231.4958
1003.4346
777.216
661.4232000000001
640.9488
590.8584000000001
519.708
400.6344
301.953
209.5746
155.97
142.9446
204.66060000000002
344.5398
573.5111999999999
701.2361999999999
740.5368000000001
631.2078
627.474
757.245
903.8892
1004.8530000000001
1188.6864
1308.6546
1215.7656000000002
1070.457
932.8134
750.2154
575.565
405.4812
302.8542
216.2088
172.95420000000001
147.86579999999998
259.608
735.1686
1294.7454000000002
1457.4678000000001
1262.5098
1009.8342
909.5723999999999
959.1372
1061.2332
993.3743999999999
904.815
1004.1564
1319.7803999999999
1655.8098
1769.9243999999999
1503.4841999999999
1161.8411999999998
932.4546000000001
743.7708
547.2858
389.5572
280.6398
203.87820000000002
172.2012
274.2828
750.3162
1314.8201999999997
1498.542
1305.636
1047.1404
937.9686
984.6294
1085.592
1016.8566000000001
929.0682
1024.503
1325.955
1647.5556
1763.2908
1498.0026
1161.9354
934.4406
744.8951999999999
549.756
391.5342
281.337
202.8066
170.97420000000002
272.331
745.062
1299.0576
1468.6236000000001
1290.153
1044.2166
942.7368
992.6748
1091.1684
1015.2906
923.871
1027.7472
1333.5084
1656.342
1757.9807999999998
1483.842
1147.155
918.576
735.5501999999999
541.9212
385.8798
277.47540000000004
201.7032
171.093
273.74219999999997
747.3492
1296.861
1468.0596
1291.3085999999998
1049.7648000000002
950.0573999999999
989.4936000000001
1088.2878
1014.3108
924.6204
1018.8402
1314.9024
1626.6102
1722.8478
1455.9516
1125.411
909.6743999999999
729.5478
538.7064
385.27080000000007
277.87140000000005
201.7008
167.8332
250.33079999999998
659.1858000000001
1129.2312
1275.1878000000002
1152.477
980.9892
958.311
1012.9644000000001
1075.359
1000.1064
945.6438
1129.4322000000002
1529.5026
1795.9152
1797.3786
1461.6581999999999
1118.1654
913.47
748.062
656.4108
534.672
373.542
270.0048
192.96
168.64740000000003
226.00320000000002
370.74
575.991
751.698
1007.1701999999999
1033.992
982.3464000000001
945.5441999999999
1061.2758
1129.6932
1232.307
1324.671
1359.6228
1255.1796000000002
1024.233
795.5832
673.446
651.6816
600.2664
528.6647999999999
407.769
309.53219999999993
214.2402
158.54040000000003
144.5664
204.984
351.7679999999999
583.9452
713.5074
754.7208
648.7218
643.0578
773.7498
929.805
1027.5204
1208.6142
1330.3566
1237.2827999999997
1086.8292000000001
945.4254
762.4968
586.3824000000001
413.4012
309.5748
221.2134
176.3442
150.06179999999998
261.3636
736.3068000000001
1295.5896
1458.0222
1262.7996
1010.2331999999999
909.7824
959.2674
1061.2878
993.4122
904.794
1004.148
1319.7846000000002
1655.8098
1769.9243999999999
1503.4841999999999
1161.8411999999998
932.4546000000001
743.7708
547.2858
389.5572
280.6398
203.87820000000002
172.2012
274.2828
750.3162
1314.8201999999997
1498.542
1305.636
1047.1404
937.9686
984.6294
1085.592
1016.8566000000001
929.0682
1024.503
1325.955
1647.5556
1763.2908
1498.0026
1161.9354
934.4406
744.8951999999999
549.756
391.5342
281.337
202.8066
170.97420000000002
272.331
745.062
1299.0576
1468.6236000000001
1290.153
1044.2166
942.7368
992.6748
1091.1684
1015.2906
923.871
1027.7472
1333.5084
1656.342
1757.9807999999998
1483.842
1147.155
918.576
735.5501999999999
541.9212
385.8798
277.47540000000004
201.7032
171.093
273.74219999999997
747.3492
1296.861
1468.0596
1291.3085999999998
1049.7648000000002
950.0573999999999
989.4936000000001
1088.2878
1014.3108
924.6204
1018.8402
1314.9024
1626.6102
1722.8478
1455.9516
1125.411
909.6743999999999
729.5478
538.7064
385.27080000000007
277.87140000000005
201.7008
167.8332
250.33079999999998
659.1858000000001
1129.2312
1275.1878000000002
1152.477
980.9892
958.311
1012.9644000000001
1075.359
1000.1064
945.6438
1129.4322000000002
1529.5026
1795.9152
1797.3786
1461.6581999999999
1118.1654
913.47
748.062
656.4108
534.672
373.542
270.0048
192.96
168.64740000000003
226.00320000000002
370.74
575.991
751.698
1007.1701999999999
1033.992
982.3464000000001
945.5441999999999
1061.2758
1129.6932
1232.307
1324.671
1359.6228
1255.1796000000002
1024.233
795.5832
673.446
651.6816
600.2664
528.6647999999999
407.769
309.53219999999993
214.2402
158.54040000000003
144.5664
204.984
351.7679999999999
583.9452
713.5074
754.7208
648.7218
643.0578
773.7498
929.805
1027.5204
1208.6142
1330.3566
1237.2827999999997
1086.8292000000001
945.4254
762.4968
586.3824000000001
413.4012
309.5748
221.2134
176.3442
150.06179999999998
261.3636
736.3068000000001
1295.5896
1458.0222
1262.7996
1010.2331999999999
909.7824
959.2674
1061.2878
993.4122
904.794
1004.148
1319.7846000000002
1655.8098
1769.9243999999999
1503.4841999999999
1161.8411999999998
932.4546000000001
743.7708
547.2858
389.5572
280.6398
203.87820000000002
172.2012
274.2828
750.3162
1314.8201999999997
1498.542
1305.636
1047.1404
937.9686
984.6294
1085.592
1016.8566000000001
929.0682
1024.503
1325.955
1647.5556
1763.2908
1498.0026
1161.9354
934.4406
744.8951999999999
549.756
391.5342
281.337
202.8066
170.97420000000002
272.331
745.062
1299.0576
1468.6236000000001
1290.153
1044.2166
942.7368
992.6748
1091.1684
1015.2906
923.871
1027.7472
1333.5084
1656.342
1757.9807999999998
1483.842
1147.155
918.576
735.5501999999999
541.9212
385.8798
277.47540000000004
201.7032
171.093
273.74219999999997
747.3492
1296.861
1468.0596
1291.3085999999998
1049.7648000000002
950.0573999999999
989.4936000000001
1088.2878
1014.3108
924.6204
1018.8402
1314.9024
1626.6102
1722.8478
1455.9516
1125.411
909.6743999999999
729.5478
538.7064
385.27080000000007
277.87140000000005
201.7008
167.8332
250.33079999999998
659.1858000000001
1129.2312
1275.1878000000002
1152.477
980.9892
958.311
1012.9644000000001
1075.359
1000.1064
945.6438
1129.4322000000002
1529.5026
1795.9152
1797.3786
1461.6581999999999
1118.1654
913.47
748.062
656.4108
534.672
373.542
270.0048
192.96
168.64740000000003
226.00320000000002
370.74
575.991
751.698
1007.1701999999999
1033.992
982.3464000000001
945.5441999999999
1061.2758
1129.6932
1232.307
1324.671
1359.6228
1255.1796000000002
1024.233
795.5832
673.446
651.6816
600.2664
528.6647999999999
407.769
309.53219999999993
214.2402
158.54040000000003
144.5664
204.984
351.7679999999999
583.9452
713.5074
754.7208
648.7218
643.0578
773.7498
929.805
1027.5204
1208.6142
1330.3566
1237.2827999999997
1086.8292000000001
945.4254
762.4968
586.3824000000001
413.4012
309.5748
221.2134
176.3442
150.06179999999998
261.3636
736.3068000000001
1295.5896
1458.0222
1262.7996
1010.2331999999999
909.7824
959.2674
1061.2878
993.4122
904.794
1004.148
1319.7846000000002
1655.8098
1769.9243999999999
1503.4841999999999
1161.8411999999998
932.4546000000001
743.7708
547.2858
389.5572
280.6398
203.87820000000002
172.2012
274.2828
750.3162
1314.8201999999997
1498.542
1305.636
1047.1404
937.9686
984.6294
1085.592
1016.8566000000001
929.0682
1024.503
1325.955
1647.5556
1763.2908
1498.0026
1161.9354
934.4406
744.8951999999999
549.756
391.5342
281.337
202.8066
170.97420000000002
272.331
745.062
1299.0576
1468.6236000000001
1290.153
1044.2166
942.7368
992.6748
1091.1684
1015.2906
923.871
1027.7472
1333.5084
1656.342
1757.9807999999998
1483.842
1147.155
918.576
735.5501999999999
541.9212
385.8798
277.47540000000004
201.7032
171.093
273.74219999999997
747.3492
1296.861
1468.0596
1291.3085999999998
1049.7648000000002
950.0573999999999
989.4936000000001
1088.2878
1014.3108
924.6204
1018.8402
1314.9024
1626.6102
1722.8478
1455.9516
1125.411
909.6743999999999
729.5478
538.7064
385.27080000000007
277.87140000000005
201.7008
167.8332
250.33079999999998
659.1858000000001
1129.2312
1275.1878000000002
1152.477
980.9892
958.311
1012.9644000000001
1075.359
1000.1064
945.6438
1129.4322000000002
1529.5026
1795.9152
1797.3786
1461.6581999999999
1118.1654
913.47
748.062
656.4108
534.672
373.542
270.0048
192.96
168.64740000000003
226.00320000000002
370.74
575.991
751.698
1007.1701999999999
1033.992
982.3464000000001
945.5441999999999
1061.2758
1129.6932
1232.307
1324.671
1359.6228
1255.1796000000002
1024.233
795.5832
673.446
